ATF	1.0
7	2     
"AcquisitionMode=Gap-Free"
"Comment="
"YTop=500"
"YBottom=-500"
"SweepStartTimesMS=0.000"
"SignalsExported=IN 0"
"Signals="	"IN 0"
"Time (s)"	"Trace #1 (pA)"
0	-10.91
1e-4	-11.4899
2e-4	-12.0392
3e-4	-10.4675
4e-4	-10.6506
5e-4	-10.9253
6e-4	-11.0474
7e-4	-11.2152
8e-4	-11.5967
9e-4	-10.7269
1e-3	-12.2375
0.0011	-10.1166
0.0012	-10.7727
0.0013	-11.1542
0.0014	-11.0016
0.0015	-11.8103
0.0016	-9.76562
0.0017	-10.3607
0.0018	-10.2539
0.0019	-10.849
0.002	-11.3068
0.0021	-10.5591
0.0022	-11.3525
0.0023	-11.2915
0.0024	-12.4359
0.0025	-10.5133
0.0026	-11.1694
0.0027	-9.61304
0.0028	-10.6201
0.0029	-11.734
0.003	-9.76562
0.0031	-10.6049
0.0032	-10.7574
0.0033	-8.14819
0.0034	-10.6201
0.0035	-10.6354
0.0036	-10.4828
0.0037	-11.0779
0.0038	-10.6964
0.0039	-12.2528
0.004	-11.8103
0.0041	-9.26208
0.0042	-11.1542
0.0043	-10.1929
0.0044	-10.8795
0.0045	-12.146
0.0046	-10.7574
0.0047	-11.6272
0.0048	-11.1694
0.0049	-11.0321
0.005	-10.1166
0.0051	-11.3525
0.0052	-11.261
0.0053	-11.3373
0.0054	-12.1002
0.0055	-10.91
0.0056	-11.9476
0.0057	-10.8795
0.0058	-10.3302
0.0059	-11.0779
0.006	-11.9171
0.0061	-10.5743
0.0062	-10.9863
0.0063	-10.6964
0.0064	-12.1613
0.0065	-10.5286
0.0066	-11.1237
0.0067	-10.6354
0.0068	-11.9934
0.0069	-10.9711
0.007	-11.3373
0.0071	-10.2692
0.0072	-11.5662
0.0073	-11.9476
0.0074	-10.5133
0.0075	-10.849
0.0076	-11.8408
0.0077	-10.6812
0.0078	-12.6038
0.0079	-11.7798
0.008	-11.5509
0.0081	-11.0474
0.0082	-11.1542
0.0083	-10.0861
0.0084	-11.6577
0.0085	-10.0403
0.0086	-7.62939
0.0087	-8.66699
0.0088	-11.8256
0.0089	-11.2457
0.009	-12.0239
0.0091	-10.6812
0.0092	-11.4136
0.0093	-11.7035
0.0094	-10.9406
0.0095	-11.8256
0.0096	-11.2457
0.0097	-12.1002
0.0098	-11.3983
0.0099	-10.8032
0.01	-11.8408
0.0101	-11.3525
0.0102	-11.5204
0.0103	-11.5814
0.0104	-11.4899
0.0105	-11.0779
0.0106	-11.9019
0.0107	-10.025
0.0108	-11.8713
0.0109	-11.2762
0.011	-10.0708
0.0111	-11.3678
0.0112	-10.7269
0.0113	-12.3444
0.0114	-11.3831
0.0115	-11.4441
0.0116	-12.6648
0.0117	-10.4828
0.0118	-13.2141
0.0119	-11.4593
0.012	-11.1084
0.0121	-10.7117
0.0122	-10.788
0.0123	-11.6119
0.0124	-10.7574
0.0125	-11.7035
0.0126	-11.3831
0.0127	-10.8032
0.0128	-10.6812
0.0129	-10.6354
0.013	-10.2234
0.0131	-10.2539
0.0132	-10.5286
0.0133	-10.3302
0.0134	-10.9863
0.0135	-11.0168
0.0136	-10.5438
0.0137	-11.4746
0.0138	-11.0626
0.0139	-9.67407
0.014	-11.1542
0.0141	-10.1166
0.0142	-11.1847
0.0143	-11.9629
0.0144	-9.70459
0.0145	-12.2986
0.0146	-9.38415
0.0147	-11.2762
0.0148	-11.0626
0.0149	-7.06482
0.015	-6.34766
0.0151	-4.95911
0.0152	-5.90515
0.0153	-5.50842
0.0154	-6.24084
0.0155	-5.50842
0.0156	-4.16565
0.0157	-6.14929
0.0158	-6.22559
0.0159	-5.46265
0.016	-6.14929
0.0161	-5.23376
0.0162	-5.21851
0.0163	-4.95911
0.0164	-5.41687
0.0165	-6.65283
0.0166	-4.82178
0.0167	-4.60815
0.0168	-5.41687
0.0169	-6.17981
0.017	-5.31006
0.0171	-6.27136
0.0172	-4.65393
0.0173	-5.06592
0.0174	-5.96619
0.0175	-4.98962
0.0176	-5.69153
0.0177	-5.23376
0.0178	-4.2572
0.0179	-5.78308
0.018	-5.41687
0.0181	-6.34766
0.0182	-12.4359
0.0183	-9.8114
0.0184	-11.795
0.0185	-11.5509
0.0186	-11.3068
0.0187	-11.1542
0.0188	-10.7727
0.0189	-11.1084
0.019	-11.322
0.0191	-11.6119
0.0192	-10.91
0.0193	-10.5133
0.0194	-10.4218
0.0195	-9.91821
0.0196	-11.3525
0.0197	-10.2081
0.0198	-10.3455
0.0199	-10.0861
0.02	-10.8948
0.0201	-10.8185
0.0202	-11.7645
0.0203	-11.2762
0.0204	-10.437
0.0205	-10.1471
0.0206	-11.9324
0.0207	-11.5356
0.0208	-10.849
0.0209	-11.734
0.021	-11.0474
0.0211	-10.6049
0.0212	-10.2692
0.0213	-10.5286
0.0214	-12.207
0.0215	-11.8561
0.0216	-11.0626
0.0217	-10.6812
0.0218	-10.6812
0.0219	-11.0931
0.022	-11.9019
0.0221	-10.7727
0.0222	-10.8948
0.0223	-12.2528
0.0224	-10.7574
0.0225	-11.3831
0.0226	-11.0321
0.0227	-11.9781
0.0228	-6.24084
0.0229	-4.86755
0.023	-5.23376
0.0231	-9.1095
0.0232	-10.6812
0.0233	-10.788
0.0234	-11.0626
0.0235	-9.0332
0.0236	-10.8032
0.0237	-11.322
0.0238	-10.9253
0.0239	-10.7117
0.024	-11.0168
0.0241	-10.0403
0.0242	-11.8561
0.0243	-9.97925
0.0244	-10.849
0.0245	-11.322
0.0246	-10.849
0.0247	-12.2681
0.0248	-10.4828
0.0249	-7.70569
0.025	-4.95911
0.0251	-6.7749
0.0252	-10.2081
0.0253	-10.5133
0.0254	-11.2762
0.0255	-10.0403
0.0256	-11.3678
0.0257	-11.2915
0.0258	-10.1471
0.0259	-11.4746
0.026	-11.5509
0.0261	-10.1929
0.0262	-10.6201
0.0263	-10.5591
0.0264	-11.3983
0.0265	-10.2997
0.0266	-11.3525
0.0267	-11.8408
0.0268	-12.085
0.0269	-11.4288
0.027	-10.8337
0.0271	-10.3912
0.0272	-12.2528
0.0273	-11.0321
0.0274	-11.0626
0.0275	-10.0708
0.0276	-10.9711
0.0277	-10.5438
0.0278	-9.90295
0.0279	-12.0239
0.028	-12.2986
0.0281	-9.59778
0.0282	-11.0321
0.0283	-11.5051
0.0284	-11.0626
0.0285	-10.5438
0.0286	-11.5356
0.0287	-11.0931
0.0288	-10.1471
0.0289	-12.1002
0.029	-11.9019
0.0291	-9.26208
0.0292	-11.0321
0.0293	-10.8185
0.0294	-10.1318
0.0295	-11.8103
0.0296	-10.2539
0.0297	-11.9019
0.0298	-10.5133
0.0299	-11.6425
0.03	-10.5438
0.0301	-11.795
0.0302	-4.22668
0.0303	-4.73022
0.0304	-5.66101
0.0305	-4.94385
0.0306	-4.40979
0.0307	-4.80652
0.0308	-5.35583
0.0309	-5.24902
0.031	-4.776
0.0311	-5.44739
0.0312	-5.12695
0.0313	-3.66211
0.0314	-5.95093
0.0315	-4.73022
0.0316	-5.20325
0.0317	-4.88281
0.0318	-4.62341
0.0319	-5.20325
0.032	-5.43213
0.0321	-5.02014
0.0322	-5.59998
0.0323	-4.42505
0.0324	-5.17273
0.0325	-4.0741
0.0326	-5.02014
0.0327	-5.08118
0.0328	-5.49316
0.0329	-5.61523
0.033	-4.776
0.0331	-5.63049
0.0332	-4.36401
0.0333	-5.31006
0.0334	-5.70679
0.0335	-4.94385
0.0336	-4.66919
0.0337	-6.36291
0.0338	-4.69971
0.0339	-5.87463
0.034	-4.5166
0.0341	-4.89807
0.0342	-4.76074
0.0343	-5.69153
0.0344	-4.73022
0.0345	-5.44739
0.0346	-5.52368
0.0347	-5.2948
0.0348	-4.16565
0.0349	-5.12695
0.035	-5.06592
0.0351	-5.70679
0.0352	-4.31824
0.0353	-4.08935
0.0354	-4.3335
0.0355	-5.76782
0.0356	-5.15747
0.0357	-5.85937
0.0358	-4.3335
0.0359	-5.21851
0.036	-5.31006
0.0361	-5.14221
0.0362	-5.59998
0.0363	-4.88281
0.0364	-4.74548
0.0365	-5.34058
0.0366	-4.30298
0.0367	-4.60815
0.0368	-6.89697
0.0369	-11.9019
0.037	-11.2457
0.0371	-11.9934
0.0372	-12.2681
0.0373	-11.0168
0.0374	-12.0392
0.0375	-11.3373
0.0376	-9.04846
0.0377	-10.4675
0.0378	-11.2762
0.0379	-11.322
0.038	-11.1694
0.0381	-11.5814
0.0382	-11.5204
0.0383	-11.2305
0.0384	-11.0779
0.0385	-11.8408
0.0386	-10.4218
0.0387	-11.1542
0.0388	-10.2539
0.0389	-11.1237
0.039	-11.2915
0.0391	-11.734
0.0392	-10.7422
0.0393	-11.4441
0.0394	-11.7035
0.0395	-10.1166
0.0396	-10.1776
0.0397	-11.734
0.0398	-10.7269
0.0399	-12.5427
0.04	-11.1847
0.0401	-11.8256
0.0402	-10.3149
0.0403	-11.0931
0.0404	-10.376
0.0405	-11.1084
0.0406	-11.5662
0.0407	-11.3678
0.0408	-10.9558
0.0409	-10.2081
0.041	-11.0626
0.0411	-8.98743
0.0412	-11.0016
0.0413	-10.437
0.0414	-11.9476
0.0415	-10.0861
0.0416	-10.8948
0.0417	-11.1694
0.0418	-11.7035
0.0419	-11.795
0.042	-11.0626
0.0421	-9.97925
0.0422	-10.4523
0.0423	-11.3831
0.0424	-10.7269
0.0425	-11.2152
0.0426	-10.3302
0.0427	-10.9406
0.0428	-9.68933
0.0429	-10.849
0.043	-11.1237
0.0431	-10.2844
0.0432	-10.9863
0.0433	-11.2915
0.0434	-9.99451
0.0435	-11.9476
0.0436	-9.61304
0.0437	-10.5743
0.0438	-10.4218
0.0439	-10.8032
0.044	-11.5967
0.0441	-12.146
0.0442	-10.9863
0.0443	-10.5591
0.0444	-10.3149
0.0445	-11.3525
0.0446	-10.4675
0.0447	-11.2
0.0448	-12.0239
0.0449	-11.1694
0.045	-11.0626
0.0451	-11.9476
0.0452	-10.91
0.0453	-11.2457
0.0454	-11.0779
0.0455	-10.7574
0.0456	-11.2152
0.0457	-11.9324
0.0458	-11.2
0.0459	-10.5133
0.046	-11.1694
0.0461	-11.9019
0.0462	-10.5743
0.0463	-10.2386
0.0464	-11.4441
0.0465	-9.46045
0.0466	-10.3607
0.0467	-11.6882
0.0468	-10.8795
0.0469	-10.7574
0.047	-12.5122
0.0471	-11.1237
0.0472	-13.2904
0.0473	-9.68933
0.0474	-12.5885
0.0475	-9.97925
0.0476	-10.4065
0.0477	-10.9406
0.0478	-10.6964
0.0479	-11.9781
0.048	-10.5896
0.0481	-11.6425
0.0482	-11.8256
0.0483	-10.8185
0.0484	-10.6659
0.0485	-11.6577
0.0486	-11.7187
0.0487	-12.2986
0.0488	-11.795
0.0489	-10.376
0.049	-11.1694
0.0491	-11.7645
0.0492	-10.8643
0.0493	-12.9395
0.0494	-10.4828
0.0495	-11.795
0.0496	-11.3068
0.0497	-11.8866
0.0498	-7.58362
0.0499	-11.4441
0.05	-11.8103
0.0501	-11.7798
0.0502	-10.6049
0.0503	-11.4288
0.0504	-10.8185
0.0505	-10.2539
0.0506	-10.5438
0.0507	-11.0321
0.0508	-10.91
0.0509	-11.8103
0.051	-11.2305
0.0511	-10.0555
0.0512	-10.5438
0.0513	-10.0098
0.0514	-11.1389
0.0515	-9.90295
0.0516	-10.8948
0.0517	-6.86645
0.0518	-6.01196
0.0519	-4.36401
0.052	-4.69971
0.0521	-6.80542
0.0522	-10.2081
0.0523	-11.7035
0.0524	-11.1389
0.0525	-11.795
0.0526	-11.0626
0.0527	-11.1237
0.0528	-11.9629
0.0529	-11.3525
0.053	-11.2762
0.0531	-10.1166
0.0532	-11.6882
0.0533	-11.0168
0.0534	-10.4523
0.0535	-11.6119
0.0536	-10.8948
0.0537	-12.6648
0.0538	-11.4899
0.0539	-10.1776
0.054	-11.4899
0.0541	-10.7269
0.0542	-10.8032
0.0543	-10.9863
0.0544	-10.788
0.0545	-11.0474
0.0546	-10.0861
0.0547	-10.8643
0.0548	-11.4899
0.0549	-10.9253
0.055	-5.31006
0.0551	-10.5286
0.0552	-10.3455
0.0553	-10.5591
0.0554	-11.7187
0.0555	-10.2081
0.0556	-11.5356
0.0557	-11.3831
0.0558	-10.9711
0.0559	-11.1542
0.056	-10.5286
0.0561	-10.5896
0.0562	-11.3831
0.0563	-11.4899
0.0564	-10.6964
0.0565	-11.3831
0.0566	-10.5133
0.0567	-11.8561
0.0568	-11.0016
0.0569	-10.1776
0.057	-11.7493
0.0571	-11.2152
0.0572	-10.6659
0.0573	-10.6354
0.0574	-11.3068
0.0575	-10.9711
0.0576	-11.0321
0.0577	-11.0016
0.0578	-12.4054
0.0579	-9.53674
0.058	-11.8866
0.0581	-11.1389
0.0582	-11.795
0.0583	-12.5122
0.0584	-10.5438
0.0585	-10.8948
0.0586	-12.1307
0.0587	-10.2386
0.0588	-11.4746
0.0589	-11.9019
0.059	-11.3068
0.0591	-10.4065
0.0592	-10.7574
0.0593	-11.0321
0.0594	-11.4288
0.0595	-11.7035
0.0596	-11.0321
0.0597	-10.7422
0.0598	-11.2305
0.0599	-11.1542
0.06	-10.5286
0.0601	-11.2305
0.0602	-11.673
0.0603	-10.6049
0.0604	-11.7035
0.0605	-11.1389
0.0606	-11.3068
0.0607	-11.1084
0.0608	-12.5122
0.0609	-9.46045
0.061	-11.0931
0.0611	-12.5275
0.0612	-10.9558
0.0613	-11.3068
0.0614	-11.8256
0.0615	-11.1389
0.0616	-10.0098
0.0617	-11.0474
0.0618	-10.2081
0.0619	-11.9019
0.062	-10.6659
0.0621	-10.849
0.0622	-11.3678
0.0623	-9.68933
0.0624	-10.9253
0.0625	-5.2948
0.0626	-9.94873
0.0627	-10.8032
0.0628	-11.4288
0.0629	-11.9019
0.063	-10.1166
0.0631	-11.2152
0.0632	-10.8795
0.0633	-11.4288
0.0634	-10.4218
0.0635	-11.7798
0.0636	-10.8795
0.0637	-10.0403
0.0638	-11.6425
0.0639	-11.0321
0.064	-10.5286
0.0641	-11.9171
0.0642	-11.8103
0.0643	-10.7117
0.0644	-11.2
0.0645	-5.58472
0.0646	-5.40161
0.0647	-4.34875
0.0648	-6.073
0.0649	-5.69153
0.065	-4.50134
0.0651	-5.78308
0.0652	-5.59998
0.0653	-5.75256
0.0654	-4.80652
0.0655	-5.66101
0.0656	-4.24194
0.0657	-5.50842
0.0658	-5.93567
0.0659	-3.9978
0.066	-5.20325
0.0661	-6.17981
0.0662	-4.21143
0.0663	-6.13403
0.0664	-5.4779
0.0665	-5.21851
0.0666	-4.71497
0.0667	-5.41687
0.0668	-5.12695
0.0669	-5.92041
0.067	-6.89697
0.0671	-5.87463
0.0672	-5.66101
0.0673	-5.12695
0.0674	-6.11877
0.0675	-5.64575
0.0676	-6.11877
0.0677	-5.23376
0.0678	-5.44739
0.0679	-5.84412
0.068	-6.19507
0.0681	-5.70679
0.0682	-6.37817
0.0683	-6.39343
0.0684	-6.66809
0.0685	-5.56946
0.0686	-6.57654
0.0687	-5.2948
0.0688	-5.76782
0.0689	-4.47082
0.069	-5.9967
0.0691	-5.67627
0.0692	-5.20325
0.0693	-5.5542
0.0694	-6.53076
0.0695	-5.23376
0.0696	-4.94385
0.0697	-6.01196
0.0698	-5.15747
0.0699	-5.92041
0.07	-4.97436
0.0701	-5.72205
0.0702	-5.35583
0.0703	-6.02722
0.0704	-4.74548
0.0705	-8.31604
0.0706	-12.3138
0.0707	-9.42993
0.0708	-6.27136
0.0709	-10.8185
0.071	-10.8948
0.0711	-9.79614
0.0712	-10.4675
0.0713	-10.8795
0.0714	-10.4065
0.0715	-10.9558
0.0716	-9.33838
0.0717	-11.0321
0.0718	-11.9476
0.0719	-10.0098
0.072	-9.50622
0.0721	-11.0626
0.0722	-5.8136
0.0723	-7.15637
0.0724	-10.2234
0.0725	-9.79614
0.0726	-11.2457
0.0727	-10.3302
0.0728	-11.1847
0.0729	-10.8643
0.073	-10.4523
0.0731	-10.3149
0.0732	-12.0544
0.0733	-11.0168
0.0734	-10.9863
0.0735	-10.7269
0.0736	-10.498
0.0737	-10.0708
0.0738	-11.4288
0.0739	-10.6964
0.074	-11.0931
0.0741	-11.9934
0.0742	-11.9019
0.0743	-11.6272
0.0744	-10.1776
0.0745	-11.2915
0.0746	-10.6812
0.0747	-12.8937
0.0748	-12.3291
0.0749	-10.5743
0.075	-11.6272
0.0751	-10.437
0.0752	-11.322
0.0753	-10.9253
0.0754	-11.673
0.0755	-10.3149
0.0756	-11.2152
0.0757	-10.8643
0.0758	-11.9476
0.0759	-5.93567
0.076	-12.1613
0.0761	-11.1389
0.0762	-10.498
0.0763	-11.0931
0.0764	-11.9324
0.0765	-11.0321
0.0766	-9.32312
0.0767	-10.376
0.0768	-12.1307
0.0769	-11.3525
0.077	-11.4288
0.0771	-10.7727
0.0772	-9.32312
0.0773	-8.65173
0.0774	-11.0626
0.0775	-11.5967
0.0776	-11.795
0.0777	-12.2986
0.0778	-11.3373
0.0779	-10.2234
0.078	-11.1542
0.0781	-11.261
0.0782	-10.5133
0.0783	-11.673
0.0784	-11.4136
0.0785	-11.3068
0.0786	-10.4523
0.0787	-11.2
0.0788	-10.849
0.0789	-11.3831
0.079	-11.6577
0.0791	-10.1013
0.0792	-11.795
0.0793	-10.7422
0.0794	-12.0392
0.0795	-11.5356
0.0796	-11.4899
0.0797	-10.1624
0.0798	-10.5896
0.0799	-10.025
0.08	-10.9711
0.0801	-10.6201
0.0802	-11.0779
0.0803	-11.8713
0.0804	-11.0016
0.0805	-12.97
0.0806	-11.4899
0.0807	-10.8795
0.0808	-11.5814
0.0809	-9.17053
0.081	-9.3689
0.0811	-12.7258
0.0812	-11.4288
0.0813	-10.6964
0.0814	-11.5356
0.0815	-9.20105
0.0816	-4.39453
0.0817	-5.20325
0.0818	-4.57764
0.0819	-5.59998
0.082	-4.94385
0.0821	-4.2572
0.0822	-4.88281
0.0823	-5.00488
0.0824	-3.72314
0.0825	-6.57654
0.0826	-4.36401
0.0827	-6.10352
0.0828	-5.90515
0.0829	-5.50842
0.083	-5.38635
0.0831	-4.86755
0.0832	-5.63049
0.0833	-4.98962
0.0834	-5.35583
0.0835	-5.21851
0.0836	-5.41687
0.0837	-5.9967
0.0838	-4.10461
0.0839	-5.78308
0.084	-4.48608
0.0841	-6.01196
0.0842	-5.09644
0.0843	-6.14929
0.0844	-6.05774
0.0845	-5.12695
0.0846	-11.0321
0.0847	-11.1084
0.0848	-10.3607
0.0849	-11.1542
0.085	-11.795
0.0851	-9.68933
0.0852	-11.9019
0.0853	-11.0168
0.0854	-11.2457
0.0855	-9.38415
0.0856	-10.4065
0.0857	-10.849
0.0858	-11.261
0.0859	-11.4136
0.086	-12.2375
0.0861	-7.30896
0.0862	-11.4899
0.0863	-9.46045
0.0864	-10.3149
0.0865	-10.6354
0.0866	-10.5133
0.0867	-10.6049
0.0868	-10.1013
0.0869	-11.3525
0.087	-10.849
0.0871	-11.2457
0.0872	-11.3068
0.0873	-11.1084
0.0874	-9.96399
0.0875	-10.9406
0.0876	-11.6425
0.0877	-12.2986
0.0878	-10.4675
0.0879	-11.0168
0.088	-11.4899
0.0881	-10.2844
0.0882	-8.34656
0.0883	-9.68933
0.0884	-10.3302
0.0885	-10.8643
0.0886	-11.0168
0.0887	-6.95801
0.0888	-6.2561
0.0889	-8.49914
0.089	-11.3678
0.0891	-10.8948
0.0892	-11.1389
0.0893	-11.4593
0.0894	-10.7422
0.0895	-11.4441
0.0896	-10.7269
0.0897	-11.2305
0.0898	-11.5509
0.0899	-9.91821
0.09	-10.91
0.0901	-10.376
0.0902	-10.8643
0.0903	-10.5286
0.0904	-11.2152
0.0905	-10.5438
0.0906	-11.9019
0.0907	-11.1389
0.0908	-11.6119
0.0909	-11.0474
0.091	-10.1776
0.0911	-10.91
0.0912	-10.7269
0.0913	-13.1378
0.0914	-9.99451
0.0915	-9.79614
0.0916	-11.2762
0.0917	-10.1929
0.0918	-11.5814
0.0919	-11.8561
0.092	-11.2762
0.0921	-10.1166
0.0922	-12.146
0.0923	-11.6272
0.0924	-10.6201
0.0925	-11.2457
0.0926	-11.3678
0.0927	-10.8337
0.0928	-11.5509
0.0929	-11.1847
0.093	-11.1694
0.0931	-11.7493
0.0932	-10.4065
0.0933	-11.6882
0.0934	-10.5286
0.0935	-11.795
0.0936	-9.18579
0.0937	-12.5427
0.0938	-11.1694
0.0939	-10.5133
0.094	-10.6354
0.0941	-10.6812
0.0942	-10.4218
0.0943	-11.7645
0.0944	-11.3831
0.0945	-10.9558
0.0946	-11.322
0.0947	-11.3373
0.0948	-10.7117
0.0949	-9.61304
0.095	-10.4065
0.0951	-10.6354
0.0952	-11.0474
0.0953	-10.1318
0.0954	-11.0626
0.0955	-10.5896
0.0956	-11.9019
0.0957	-10.849
0.0958	-10.4523
0.0959	-10.025
0.096	-8.80432
0.0961	-11.2152
0.0962	-11.3678
0.0963	-10.7727
0.0964	-10.6659
0.0965	-11.1389
0.0966	-10.2386
0.0967	-9.64355
0.0968	-11.6577
0.0969	-11.7798
0.097	-11.7645
0.0971	-10.1929
0.0972	-11.2762
0.0973	-10.3455
0.0974	-11.4593
0.0975	-11.7493
0.0976	-10.4675
0.0977	-10.498
0.0978	-12.0544
0.0979	-10.5743
0.098	-10.5438
0.0981	-11.5814
0.0982	-11.0931
0.0983	-12.0239
0.0984	-11.2762
0.0985	-10.2539
0.0986	-12.5885
0.0987	-11.7187
0.0988	-11.6577
0.0989	-9.26208
0.099	-11.8561
0.0991	-11.3525
0.0992	-10.3607
0.0993	-11.2152
0.0994	-10.376
0.0995	-11.0474
0.0996	-10.8337
0.0997	-10.6812
0.0998	-11.4593
0.0999	-11.3373
0.1	-10.849
0.1001	-11.0016
0.1002	-10.9863
0.1003	-11.8866
0.1004	-11.2305
0.1005	-12.2223
0.1006	-10.4828
0.1007	-11.4441
0.1008	-10.5743
0.1009	-10.4675
0.101	-9.88769
0.1011	-11.5204
0.1012	-10.3149
0.1013	-11.2915
0.1014	-11.1237
0.1015	-11.5509
0.1016	-10.5743
0.1017	-10.6201
0.1018	-11.5814
0.1019	-10.7422
0.102	-10.2844
0.1021	-10.4218
0.1022	-9.97925
0.1023	-11.2
0.1024	-11.9171
0.1025	-11.9324
0.1026	-9.90295
0.1027	-11.1847
0.1028	-11.0474
0.1029	-9.82666
0.103	-11.3373
0.1031	-10.4065
0.1032	-11.3678
0.1033	-11.0016
0.1034	-10.788
0.1035	-10.4675
0.1036	-11.4288
0.1037	-8.30078
0.1038	-11.3373
0.1039	-10.8643
0.104	-9.67407
0.1041	-11.2152
0.1042	-10.849
0.1043	-9.84192
0.1044	-9.70459
0.1045	-5.63049
0.1046	-10.1318
0.1047	-10.6659
0.1048	-10.1624
0.1049	-11.0779
0.105	-10.498
0.1051	-11.5204
0.1052	-11.3068
0.1053	-11.2915
0.1054	-11.0931
0.1055	-11.5662
0.1056	-11.3831
0.1057	-11.0779
0.1058	-11.4899
0.1059	-10.025
0.106	-12.0239
0.1061	-11.4899
0.1062	-11.1542
0.1063	-10.1166
0.1064	-10.9253
0.1065	-11.8713
0.1066	-10.91
0.1067	-11.1389
0.1068	-11.1847
0.1069	-10.849
0.107	-11.4593
0.1071	-11.2915
0.1072	-10.2081
0.1073	-10.9558
0.1074	-9.94873
0.1075	-11.5814
0.1076	-10.4065
0.1077	-11.1542
0.1078	-10.7117
0.1079	-10.2386
0.108	-6.72913
0.1081	-5.63049
0.1082	-5.26428
0.1083	-11.6119
0.1084	-10.4523
0.1085	-11.5356
0.1086	-11.4746
0.1087	-10.6049
0.1088	-10.2844
0.1089	-11.6119
0.109	-10.7422
0.1091	-11.0321
0.1092	-10.1624
0.1093	-11.0168
0.1094	-10.6659
0.1095	-7.88879
0.1096	-10.437
0.1097	-11.5051
0.1098	-10.5896
0.1099	-10.2539
0.11	-11.3373
0.1101	-11.3678
0.1102	-10.9863
0.1103	-11.3678
0.1104	-11.3068
0.1105	-11.0474
0.1106	-11.261
0.1107	-12.6038
0.1108	-8.66699
0.1109	-9.84192
0.111	-7.87353
0.1111	-10.3149
0.1112	-9.47571
0.1113	-9.62829
0.1114	-6.16455
0.1115	-5.90515
0.1116	-10.8337
0.1117	-10.6964
0.1118	-9.88769
0.1119	-10.4218
0.112	-10.1929
0.1121	-11.795
0.1122	-11.3831
0.1123	-10.5743
0.1124	-10.025
0.1125	-11.4288
0.1126	-11.673
0.1127	-10.2997
0.1128	-11.7035
0.1129	-11.6425
0.113	-10.5133
0.1131	-10.2997
0.1132	-11.3068
0.1133	-12.8174
0.1134	-9.46045
0.1135	-10.0555
0.1136	-9.88769
0.1137	-11.6272
0.1138	-11.4593
0.1139	-10.2997
0.114	-10.9711
0.1141	-11.5509
0.1142	-10.6659
0.1143	-11.4288
0.1144	-10.2539
0.1145	-11.2
0.1146	-10.4523
0.1147	-11.6882
0.1148	-11.3678
0.1149	-10.7422
0.115	-10.6049
0.1151	-10.5133
0.1152	-11.673
0.1153	-11.8256
0.1154	-10.4828
0.1155	-10.0861
0.1156	-12.3138
0.1157	-11.2915
0.1158	-11.1847
0.1159	-11.0779
0.116	-10.7269
0.1161	-11.1084
0.1162	-9.65881
0.1163	-12.2681
0.1164	-7.87353
0.1165	-8.80432
0.1166	-5.88989
0.1167	-11.0931
0.1168	-10.5438
0.1169	-10.91
0.117	-11.3373
0.1171	-10.7117
0.1172	-11.9324
0.1173	-11.8103
0.1174	-12.0087
0.1175	-11.0474
0.1176	-11.6882
0.1177	-10.5591
0.1178	-11.0168
0.1179	-11.4899
0.118	-10.1471
0.1181	-11.4746
0.1182	-11.3983
0.1183	-10.5896
0.1184	-11.4899
0.1185	-10.6049
0.1186	-11.8256
0.1187	-11.7798
0.1188	-11.0016
0.1189	-9.96399
0.119	-10.7117
0.1191	-10.5133
0.1192	-11.9019
0.1193	-11.9019
0.1194	-9.91821
0.1195	-5.7373
0.1196	-4.85229
0.1197	-5.27954
0.1198	-5.14221
0.1199	-4.63867
0.12	-6.3324
0.1201	-6.72913
0.1202	-6.8512
0.1203	-7.70569
0.1204	-9.26208
0.1205	-9.73511
0.1206	-10.3302
0.1207	-8.42285
0.1208	-10.1471
0.1209	-11.8408
0.121	-11.5509
0.1211	-9.96399
0.1212	-11.7493
0.1213	-10.9558
0.1214	-11.9934
0.1215	-9.35364
0.1216	-11.734
0.1217	-11.4441
0.1218	-11.3373
0.1219	-10.3149
0.122	-11.2152
0.1221	-10.1166
0.1222	-11.0168
0.1223	-12.1155
0.1224	-10.7117
0.1225	-10.8643
0.1226	-10.6049
0.1227	-11.1694
0.1228	-11.2
0.1229	-10.437
0.123	-11.4288
0.1231	-12.4969
0.1232	-10.0555
0.1233	-11.8103
0.1234	-10.4065
0.1235	-9.97925
0.1236	-11.5204
0.1237	-11.3373
0.1238	-11.5509
0.1239	-9.26208
0.124	-10.4065
0.1241	-10.7269
0.1242	-10.8337
0.1243	-10.9558
0.1244	-10.2844
0.1245	-10.7574
0.1246	-10.7727
0.1247	-11.1237
0.1248	-11.6882
0.1249	-11.0168
0.125	-10.8337
0.1251	-11.0016
0.1252	-9.97925
0.1253	-9.70459
0.1254	-10.788
0.1255	-10.2081
0.1256	-10.849
0.1257	-11.5204
0.1258	-10.4065
0.1259	-12.207
0.126	-9.96399
0.1261	-10.9711
0.1262	-10.6201
0.1263	-10.6964
0.1264	-11.0474
0.1265	-10.8948
0.1266	-10.8185
0.1267	-11.3678
0.1268	-11.2762
0.1269	-11.8408
0.127	-12.1155
0.1271	-11.322
0.1272	-10.9863
0.1273	-11.795
0.1274	-11.3831
0.1275	-10.8337
0.1276	-10.9863
0.1277	-10.91
0.1278	-12.0697
0.1279	-10.9253
0.128	-10.3607
0.1281	-10.9253
0.1282	-11.5204
0.1283	-12.7869
0.1284	-11.0474
0.1285	-11.3068
0.1286	-10.498
0.1287	-11.5356
0.1288	-11.4288
0.1289	-11.1084
0.129	-10.8948
0.1291	-11.3068
0.1292	-11.9476
0.1293	-11.8408
0.1294	-11.7798
0.1295	-12.4664
0.1296	-9.42993
0.1297	-11.6119
0.1298	-11.4441
0.1299	-11.0931
0.13	-12.8479
0.1301	-11.5662
0.1302	-11.3068
0.1303	-11.3983
0.1304	-10.1166
0.1305	-11.0626
0.1306	-12.0697
0.1307	-9.59778
0.1308	-12.4969
0.1309	-11.1542
0.131	-10.2844
0.1311	-11.5509
0.1312	-11.7187
0.1313	-11.8561
0.1314	-9.75037
0.1315	-10.3912
0.1316	-10.9863
0.1317	-11.5662
0.1318	-11.0626
0.1319	-10.7727
0.132	-10.5896
0.1321	-12.2528
0.1322	-10.8643
0.1323	-11.4746
0.1324	-10.8032
0.1325	-11.3068
0.1326	-10.2386
0.1327	-11.1084
0.1328	-11.0779
0.1329	-10.4828
0.133	-12.3749
0.1331	-11.261
0.1332	-11.0626
0.1333	-11.4899
0.1334	-11.0474
0.1335	-10.9558
0.1336	-10.9253
0.1337	-10.0403
0.1338	-11.1237
0.1339	-10.5896
0.134	-11.2915
0.1341	-10.6964
0.1342	-10.6201
0.1343	-9.73511
0.1344	-11.0016
0.1345	-10.6049
0.1346	-10.4675
0.1347	-9.32312
0.1348	-11.2305
0.1349	-11.2152
0.135	-11.1542
0.1351	-9.67407
0.1352	-10.8948
0.1353	-10.2234
0.1354	-11.2915
0.1355	-10.8185
0.1356	-10.8795
0.1357	-11.3525
0.1358	-11.4441
0.1359	-10.849
0.136	-9.44519
0.1361	-11.0931
0.1362	-11.1389
0.1363	-11.2457
0.1364	-11.4136
0.1365	-9.88769
0.1366	-9.00268
0.1367	-10.1776
0.1368	-12.0087
0.1369	-11.2
0.137	-11.2457
0.1371	-11.6119
0.1372	-9.67407
0.1373	-11.8408
0.1374	-10.437
0.1375	-11.4593
0.1376	-12.146
0.1377	-10.6049
0.1378	-11.3831
0.1379	-12.5122
0.138	-11.8713
0.1381	-11.673
0.1382	-10.6049
0.1383	-11.1084
0.1384	-11.3678
0.1385	-12.3291
0.1386	-11.4136
0.1387	-11.9324
0.1388	-11.3678
0.1389	-11.5509
0.139	-11.2457
0.1391	-10.5591
0.1392	-10.4523
0.1393	-12.0392
0.1394	-10.2234
0.1395	-11.0779
0.1396	-11.1389
0.1397	-10.9863
0.1398	-12.7258
0.1399	-11.2457
0.14	-12.2833
0.1401	-12.4359
0.1402	-10.4218
0.1403	-12.4969
0.1404	-10.4523
0.1405	-12.2223
0.1406	-10.8948
0.1407	-11.1389
0.1408	-11.3373
0.1409	-11.4136
0.141	-11.4288
0.1411	-11.1237
0.1412	-11.8408
0.1413	-11.6272
0.1414	-11.6425
0.1415	-10.5286
0.1416	-12.1002
0.1417	-10.2539
0.1418	-11.3678
0.1419	-9.23157
0.142	-10.8795
0.1421	-11.7798
0.1422	-11.1389
0.1423	-11.8256
0.1424	-11.6882
0.1425	-10.6506
0.1426	-10.5591
0.1427	-11.2457
0.1428	-11.9171
0.1429	-11.1847
0.143	-11.3831
0.1431	-7.35474
0.1432	-11.3678
0.1433	-11.5967
0.1434	-11.2457
0.1435	-12.4054
0.1436	-10.7117
0.1437	-11.3373
0.1438	-10.8032
0.1439	-10.7269
0.144	-10.376
0.1441	-11.734
0.1442	-12.1155
0.1443	-10.9406
0.1444	-10.9863
0.1445	-11.4746
0.1446	-11.3068
0.1447	-11.1389
0.1448	-11.3525
0.1449	-10.9406
0.145	-10.5743
0.1451	-10.7422
0.1452	-12.0087
0.1453	-10.9863
0.1454	-10.7269
0.1455	-12.4359
0.1456	-11.0626
0.1457	-10.7422
0.1458	-11.7798
0.1459	-10.8795
0.146	-10.5591
0.1461	-11.2762
0.1462	-10.7269
0.1463	-11.3831
0.1464	-11.0626
0.1465	-11.5204
0.1466	-10.7574
0.1467	-10.6659
0.1468	-10.5133
0.1469	-10.0098
0.147	-11.3068
0.1471	-12.3138
0.1472	-10.5438
0.1473	-11.6119
0.1474	-10.5438
0.1475	-9.73511
0.1476	-10.849
0.1477	-9.42993
0.1478	-11.1847
0.1479	-11.2915
0.148	-10.9558
0.1481	-10.91
0.1482	-11.9324
0.1483	-10.6964
0.1484	-12.1918
0.1485	-10.9711
0.1486	-11.7645
0.1487	-11.322
0.1488	-11.0626
0.1489	-12.2528
0.149	-11.4136
0.1491	-11.0931
0.1492	-11.3678
0.1493	-11.3525
0.1494	-12.4969
0.1495	-10.788
0.1496	-11.3373
0.1497	-10.498
0.1498	-10.0403
0.1499	-11.5662
0.15	-11.4288
0.1501	-10.7269
0.1502	-10.8643
0.1503	-11.3068
0.1504	-10.9711
0.1505	-11.8561
0.1506	-10.2386
0.1507	-11.3983
0.1508	-11.7035
0.1509	-11.8103
0.151	-11.795
0.1511	-11.3678
0.1512	-11.1542
0.1513	-10.9863
0.1514	-8.19397
0.1515	-9.78088
0.1516	-9.42993
0.1517	-12.3291
0.1518	-10.9863
0.1519	-11.2305
0.152	-11.8713
0.1521	-10.6812
0.1522	-12.1155
0.1523	-10.91
0.1524	-11.3525
0.1525	-11.322
0.1526	-11.2
0.1527	-12.146
0.1528	-12.3291
0.1529	-10.4523
0.153	-11.0321
0.1531	-8.52966
0.1532	-11.1694
0.1533	-11.2762
0.1534	-11.0168
0.1535	-11.0626
0.1536	-11.795
0.1537	-11.3983
0.1538	-9.90295
0.1539	-10.5438
0.154	-11.1237
0.1541	-12.146
0.1542	-10.788
0.1543	-11.4136
0.1544	-12.3596
0.1545	-11.4441
0.1546	-11.7645
0.1547	-9.90295
0.1548	-11.6119
0.1549	-10.7727
0.155	-11.3373
0.1551	-10.9558
0.1552	-11.0779
0.1553	-9.64355
0.1554	-11.5051
0.1555	-11.6882
0.1556	-11.0016
0.1557	-11.8866
0.1558	-10.3149
0.1559	-11.5662
0.156	-11.3983
0.1561	-10.437
0.1562	-12.4664
0.1563	-11.2762
0.1564	-11.734
0.1565	-10.7117
0.1566	-11.2915
0.1567	-12.0697
0.1568	-10.4218
0.1569	-11.2762
0.157	-11.5509
0.1571	-11.9781
0.1572	-9.99451
0.1573	-10.6964
0.1574	-10.2081
0.1575	-6.50024
0.1576	-7.70569
0.1577	-4.02832
0.1578	-5.52368
0.1579	-5.46265
0.158	-6.28662
0.1581	-5.21851
0.1582	-6.98852
0.1583	-6.073
0.1584	-5.0354
0.1585	-8.04138
0.1586	-11.9781
0.1587	-10.9711
0.1588	-11.7035
0.1589	-10.9863
0.159	-10.8643
0.1591	-11.1084
0.1592	-10.8795
0.1593	-11.4593
0.1594	-12.1307
0.1595	-11.7187
0.1596	-11.5967
0.1597	-11.3373
0.1598	-12.207
0.1599	-10.9558
0.16	-10.376
0.1601	-10.91
0.1602	-6.19507
0.1603	-5.69153
0.1604	-10.4523
0.1605	-12.1765
0.1606	-11.4899
0.1607	-10.9711
0.1608	-11.2
0.1609	-11.0931
0.161	-12.1765
0.1611	-10.91
0.1612	-11.1542
0.1613	-10.5896
0.1614	-10.2386
0.1615	-12.2681
0.1616	-11.0321
0.1617	-11.5356
0.1618	-8.7738
0.1619	-7.15637
0.162	-9.42993
0.1621	-4.5166
0.1622	-5.84412
0.1623	-5.4779
0.1624	-10.2234
0.1625	-8.05664
0.1626	-11.5204
0.1627	-9.8114
0.1628	-11.4746
0.1629	-10.5896
0.163	-12.3596
0.1631	-10.9406
0.1632	-11.0016
0.1633	-12.8326
0.1634	-10.8643
0.1635	-11.6577
0.1636	-10.7574
0.1637	-10.849
0.1638	-11.5814
0.1639	-11.4288
0.164	-10.6049
0.1641	-11.7035
0.1642	-11.1237
0.1643	-11.0016
0.1644	-11.4593
0.1645	-10.6201
0.1646	-12.3138
0.1647	-10.7117
0.1648	-10.91
0.1649	-11.5204
0.165	-11.6119
0.1651	-11.6425
0.1652	-10.6659
0.1653	-11.2915
0.1654	-10.6354
0.1655	-10.5743
0.1656	-11.5356
0.1657	-10.0098
0.1658	-10.8795
0.1659	-10.6659
0.166	-11.1542
0.1661	-11.1237
0.1662	-10.1776
0.1663	-12.1613
0.1664	-10.7727
0.1665	-10.8643
0.1666	-11.1542
0.1667	-11.0168
0.1668	-13.382
0.1669	-10.025
0.167	-11.5356
0.1671	-12.085
0.1672	-10.9711
0.1673	-11.2762
0.1674	-11.4593
0.1675	-10.8032
0.1676	-12.085
0.1677	-10.7574
0.1678	-11.322
0.1679	-11.7645
0.168	-10.9253
0.1681	-11.6119
0.1682	-11.261
0.1683	-11.6119
0.1684	-10.8032
0.1685	-11.795
0.1686	-13.2294
0.1687	-11.0626
0.1688	-10.3149
0.1689	-11.9171
0.169	-10.3149
0.1691	-12.3901
0.1692	-11.3373
0.1693	-11.322
0.1694	-11.3983
0.1695	-10.7269
0.1696	-11.6577
0.1697	-12.7106
0.1698	-11.9934
0.1699	-11.0016
0.17	-10.849
0.1701	-11.0474
0.1702	-12.2375
0.1703	-11.5509
0.1704	-11.734
0.1705	-12.0697
0.1706	-11.6119
0.1707	-10.7269
0.1708	-11.2305
0.1709	-11.1694
0.171	-11.9171
0.1711	-9.15527
0.1712	-10.7117
0.1713	-10.4675
0.1714	-11.1542
0.1715	-11.8256
0.1716	-11.8408
0.1717	-10.6201
0.1718	-10.9711
0.1719	-11.1237
0.172	-10.7727
0.1721	-11.8408
0.1722	-9.93347
0.1723	-11.3678
0.1724	-12.4512
0.1725	-11.3983
0.1726	-11.3678
0.1727	-11.2762
0.1728	-11.5967
0.1729	-11.6272
0.173	-10.6354
0.1731	-10.9406
0.1732	-10.4523
0.1733	-11.5967
0.1734	-10.7117
0.1735	-11.2457
0.1736	-11.2457
0.1737	-11.8866
0.1738	-11.0474
0.1739	-11.261
0.174	-11.5662
0.1741	-10.6659
0.1742	-12.3901
0.1743	-10.3149
0.1744	-11.5509
0.1745	-11.3831
0.1746	-11.7645
0.1747	-10.8032
0.1748	-11.7187
0.1749	-11.5356
0.175	-11.8866
0.1751	-11.3373
0.1752	-10.6201
0.1753	-11.4746
0.1754	-11.0626
0.1755	-10.788
0.1756	-12.0239
0.1757	-9.67407
0.1758	-10.9253
0.1759	-11.9171
0.176	-11.0168
0.1761	-10.6354
0.1762	-11.8713
0.1763	-9.62829
0.1764	-11.4441
0.1765	-11.4136
0.1766	-11.2762
0.1767	-11.6882
0.1768	-9.70459
0.1769	-10.6049
0.177	-11.3373
0.1771	-10.7422
0.1772	-12.4664
0.1773	-10.376
0.1774	-10.6049
0.1775	-12.619
0.1776	-10.8643
0.1777	-11.4136
0.1778	-11.3068
0.1779	-11.8713
0.178	-11.261
0.1781	-11.7645
0.1782	-11.1237
0.1783	-10.6049
0.1784	-11.8256
0.1785	-10.8643
0.1786	-11.9934
0.1787	-10.6964
0.1788	-12.8632
0.1789	-10.6659
0.179	-11.9781
0.1791	-10.6659
0.1792	-11.1694
0.1793	-11.4136
0.1794	-11.5967
0.1795	-11.0474
0.1796	-11.5356
0.1797	-12.0087
0.1798	-8.56018
0.1799	-11.2152
0.18	-11.322
0.1801	-11.3068
0.1802	-11.673
0.1803	-11.9476
0.1804	-11.2305
0.1805	-11.2305
0.1806	-11.9934
0.1807	-12.5275
0.1808	-11.1542
0.1809	-10.437
0.181	-11.3068
0.1811	-10.3149
0.1812	-11.6577
0.1813	-11.261
0.1814	-11.1237
0.1815	-9.88769
0.1816	-11.0474
0.1817	-11.1084
0.1818	-10.025
0.1819	-11.8103
0.182	-10.4828
0.1821	-10.3607
0.1822	-8.04138
0.1823	-11.1694
0.1824	-11.322
0.1825	-10.437
0.1826	-11.2915
0.1827	-11.1847
0.1828	-11.2305
0.1829	-11.7645
0.183	-11.7798
0.1831	-10.7422
0.1832	-11.322
0.1833	-10.7117
0.1834	-11.9934
0.1835	-11.1694
0.1836	-10.8795
0.1837	-10.8337
0.1838	-10.6354
0.1839	-11.7187
0.184	-10.849
0.1841	-10.2234
0.1842	-12.085
0.1843	-11.7035
0.1844	-11.5662
0.1845	-10.9558
0.1846	-11.734
0.1847	-12.6801
0.1848	-10.91
0.1849	-11.5509
0.185	-12.4054
0.1851	-10.5438
0.1852	-11.0931
0.1853	-12.4969
0.1854	-11.8713
0.1855	-10.3607
0.1856	-10.9711
0.1857	-11.3525
0.1858	-10.9558
0.1859	-11.2457
0.186	-10.0403
0.1861	-10.5438
0.1862	-11.0474
0.1863	-11.4136
0.1864	-10.2234
0.1865	-10.7117
0.1866	-10.9406
0.1867	-11.0168
0.1868	-11.5967
0.1869	-11.5051
0.187	-11.1389
0.1871	-10.1929
0.1872	-12.1918
0.1873	-11.8561
0.1874	-11.1237
0.1875	-10.9711
0.1876	-11.3678
0.1877	-10.2844
0.1878	-12.1765
0.1879	-11.9324
0.188	-11.0474
0.1881	-11.0321
0.1882	-11.261
0.1883	-11.795
0.1884	-11.5204
0.1885	-10.437
0.1886	-11.3525
0.1887	-12.0544
0.1888	-11.734
0.1889	-11.261
0.189	-10.5591
0.1891	-12.0239
0.1892	-11.322
0.1893	-12.5427
0.1894	-10.8185
0.1895	-10.5133
0.1896	-10.9863
0.1897	-11.322
0.1898	-11.5814
0.1899	-11.734
0.19	-11.8103
0.1901	-11.9781
0.1902	-10.9711
0.1903	-11.7798
0.1904	-12.1307
0.1905	-11.4899
0.1906	-11.4593
0.1907	-12.8479
0.1908	-11.6272
0.1909	-11.0626
0.191	-11.1542
0.1911	-10.9711
0.1912	-11.4593
0.1913	-11.2762
0.1914	-11.1694
0.1915	-11.3983
0.1916	-11.3678
0.1917	-6.72913
0.1918	-11.1237
0.1919	-10.8032
0.192	-11.4593
0.1921	-11.1237
0.1922	-11.8866
0.1923	-10.6506
0.1924	-11.4288
0.1925	-11.4899
0.1926	-11.5814
0.1927	-11.4136
0.1928	-11.1847
0.1929	-12.1155
0.193	-11.673
0.1931	-10.91
0.1932	-11.673
0.1933	-11.8103
0.1934	-11.3831
0.1935	-12.2528
0.1936	-10.9863
0.1937	-12.6648
0.1938	-11.4746
0.1939	-11.8713
0.194	-11.2762
0.1941	-11.5509
0.1942	-11.4899
0.1943	-11.4136
0.1944	-11.9171
0.1945	-10.8948
0.1946	-10.5438
0.1947	-10.0098
0.1948	-10.8643
0.1949	-11.4593
0.195	-10.8337
0.1951	-10.9253
0.1952	-10.7269
0.1953	-11.4288
0.1954	-11.261
0.1955	-11.5662
0.1956	-9.94873
0.1957	-12.0087
0.1958	-11.5051
0.1959	-10.849
0.196	-12.1765
0.1961	-11.2152
0.1962	-12.6648
0.1963	-10.9253
0.1964	-11.5967
0.1965	-12.4054
0.1966	-11.0321
0.1967	-12.5122
0.1968	-10.3455
0.1969	-11.2152
0.197	-11.9324
0.1971	-11.0626
0.1972	-12.1002
0.1973	-10.849
0.1974	-11.261
0.1975	-11.7187
0.1976	-11.0626
0.1977	-12.1613
0.1978	-11.5662
0.1979	-11.0931
0.198	-11.5509
0.1981	-11.2
0.1982	-11.5051
0.1983	-10.498
0.1984	-11.3831
0.1985	-11.1847
0.1986	-11.1694
0.1987	-12.2375
0.1988	-11.5509
0.1989	-12.8937
0.199	-11.3678
0.1991	-10.9711
0.1992	-11.1389
0.1993	-10.5743
0.1994	-6.80542
0.1995	-4.98962
0.1996	-5.92041
0.1997	-5.49316
0.1998	-12.1002
0.1999	-11.5356
0.2	-10.1776
0.2001	-10.8948
0.2002	-11.5356
0.2003	-11.2305
0.2004	-12.085
0.2005	-11.4746
0.2006	-11.3373
0.2007	-11.2
0.2008	-11.9629
0.2009	-10.9558
0.201	-11.4899
0.2011	-11.9934
0.2012	-11.795
0.2013	-11.9171
0.2014	-12.3138
0.2015	-11.2915
0.2016	-10.7117
0.2017	-11.7187
0.2018	-11.1084
0.2019	-11.0931
0.202	-11.795
0.2021	-10.1776
0.2022	-11.3373
0.2023	-11.4593
0.2024	-11.4288
0.2025	-10.8032
0.2026	-10.7117
0.2027	-12.2681
0.2028	-10.6049
0.2029	-11.1847
0.203	-11.5509
0.2031	-10.9711
0.2032	-10.8032
0.2033	-10.849
0.2034	-11.2152
0.2035	-12.0239
0.2036	-11.2152
0.2037	-10.6964
0.2038	-10.2081
0.2039	-11.734
0.204	-11.7035
0.2041	-11.3525
0.2042	-11.0474
0.2043	-12.3749
0.2044	-11.3831
0.2045	-10.5286
0.2046	-10.1166
0.2047	-12.4664
0.2048	-9.39941
0.2049	-10.9558
0.205	-11.2457
0.2051	-10.1624
0.2052	-12.2223
0.2053	-10.5743
0.2054	-10.7269
0.2055	-11.0626
0.2056	-12.2375
0.2057	-10.2234
0.2058	-11.7493
0.2059	-11.1084
0.206	-10.5438
0.2061	-10.5743
0.2062	-10.4065
0.2063	-10.8643
0.2064	-11.7645
0.2065	-11.4899
0.2066	-9.65881
0.2067	-10.8795
0.2068	-11.7035
0.2069	-12.207
0.207	-11.8256
0.2071	-11.6272
0.2072	-10.3912
0.2073	-11.7493
0.2074	-11.2152
0.2075	-10.5896
0.2076	-11.1084
0.2077	-10.437
0.2078	-10.8185
0.2079	-12.7869
0.208	-10.1166
0.2081	-12.8632
0.2082	-12.207
0.2083	-10.5438
0.2084	-11.5662
0.2085	-11.7493
0.2086	-10.6354
0.2087	-10.4218
0.2088	-11.5204
0.2089	-11.673
0.209	-12.2223
0.2091	-11.9629
0.2092	-11.6119
0.2093	-11.8408
0.2094	-11.7187
0.2095	-11.0626
0.2096	-11.5204
0.2097	-11.0321
0.2098	-11.9476
0.2099	-11.5509
0.21	-8.75854
0.2101	-10.7422
0.2102	-13.031
0.2103	-11.4746
0.2104	-11.0474
0.2105	-11.8103
0.2106	-11.5814
0.2107	-12.2528
0.2108	-11.5204
0.2109	-11.5509
0.211	-11.3373
0.2111	-10.6506
0.2112	-11.9019
0.2113	-10.4218
0.2114	-10.498
0.2115	-11.8103
0.2116	-11.3678
0.2117	-11.2457
0.2118	-10.8032
0.2119	-11.1847
0.212	-10.3302
0.2121	-10.788
0.2122	-11.1237
0.2123	-9.26208
0.2124	-11.4288
0.2125	-10.8643
0.2126	-11.7187
0.2127	-10.9558
0.2128	-10.5133
0.2129	-11.0016
0.213	-12.1155
0.2131	-11.7187
0.2132	-11.9476
0.2133	-12.1002
0.2134	-10.1166
0.2135	-8.01086
0.2136	-12.0544
0.2137	-11.1694
0.2138	-11.1847
0.2139	-12.5122
0.214	-10.8337
0.2141	-11.3983
0.2142	-9.75037
0.2143	-12.146
0.2144	-11.5662
0.2145	-11.3983
0.2146	-12.4207
0.2147	-10.91
0.2148	-11.1084
0.2149	-10.9558
0.215	-11.3831
0.2151	-11.4899
0.2152	-11.2457
0.2153	-11.0321
0.2154	-11.1237
0.2155	-10.6659
0.2156	-10.6354
0.2157	-12.7869
0.2158	-11.5967
0.2159	-11.6882
0.216	-10.5438
0.2161	-11.5356
0.2162	-10.5896
0.2163	-11.1694
0.2164	-10.8337
0.2165	-11.3678
0.2166	-10.91
0.2167	-11.2
0.2168	-12.5427
0.2169	-11.322
0.217	-12.1918
0.2171	-11.4899
0.2172	-11.3373
0.2173	-12.2986
0.2174	-11.3525
0.2175	-12.1155
0.2176	-12.0544
0.2177	-10.9558
0.2178	-10.9711
0.2179	-11.4593
0.218	-11.0321
0.2181	-11.6425
0.2182	-11.0168
0.2183	-11.2762
0.2184	-11.5967
0.2185	-11.9781
0.2186	-10.8185
0.2187	-11.4746
0.2188	-11.0931
0.2189	-11.7187
0.219	-12.1765
0.2191	-11.6425
0.2192	-12.4512
0.2193	-11.0168
0.2194	-10.4218
0.2195	-11.1389
0.2196	-11.7035
0.2197	-8.46863
0.2198	-10.2997
0.2199	-11.7187
0.22	-11.4593
0.2201	-11.9476
0.2202	-11.1237
0.2203	-11.3068
0.2204	-11.2
0.2205	-12.8326
0.2206	-11.9171
0.2207	-10.3607
0.2208	-11.6119
0.2209	-11.7187
0.221	-10.849
0.2211	-11.1237
0.2212	-11.3983
0.2213	-11.1237
0.2214	-10.9711
0.2215	-11.4899
0.2216	-9.58252
0.2217	-11.5356
0.2218	-9.97925
0.2219	-11.673
0.222	-11.9019
0.2221	-10.7574
0.2222	-11.5509
0.2223	-10.6659
0.2224	-11.8103
0.2225	-11.0626
0.2226	-12.2986
0.2227	-10.4675
0.2228	-10.6659
0.2229	-12.3596
0.223	-11.0168
0.2231	-10.91
0.2232	-10.4523
0.2233	-12.2223
0.2234	-11.1084
0.2235	-11.3831
0.2236	-12.1918
0.2237	-11.1237
0.2238	-10.7422
0.2239	-10.7422
0.224	-12.619
0.2241	-11.0779
0.2242	-10.5438
0.2243	-9.47571
0.2244	-8.49914
0.2245	-8.81958
0.2246	-10.4065
0.2247	-9.49097
0.2248	-10.3912
0.2249	-8.16345
0.225	-10.2234
0.2251	-10.0708
0.2252	-11.4746
0.2253	-10.7422
0.2254	-10.0861
0.2255	-10.3607
0.2256	-10.8185
0.2257	-11.8256
0.2258	-11.1237
0.2259	-10.4523
0.226	-11.9934
0.2261	-9.61304
0.2262	-11.322
0.2263	-11.1084
0.2264	-11.9934
0.2265	-11.1237
0.2266	-10.6506
0.2267	-10.5743
0.2268	-11.0779
0.2269	-10.9863
0.227	-11.8103
0.2271	-10.7422
0.2272	-10.8643
0.2273	-10.2081
0.2274	-12.3291
0.2275	-11.8408
0.2276	-11.0626
0.2277	-10.8795
0.2278	-11.3983
0.2279	-12.1918
0.228	-11.5814
0.2281	-10.6659
0.2282	-9.67407
0.2283	-10.8032
0.2284	-10.437
0.2285	-8.94165
0.2286	-6.80542
0.2287	-11.3983
0.2288	-10.2692
0.2289	-11.2152
0.229	-11.4441
0.2291	-10.849
0.2292	-12.5275
0.2293	-10.5133
0.2294	-11.4288
0.2295	-10.7269
0.2296	-11.1847
0.2297	-11.0931
0.2298	-11.3983
0.2299	-11.1694
0.23	-12.1613
0.2301	-11.4441
0.2302	-11.1694
0.2303	-11.4593
0.2304	-11.9019
0.2305	-11.2152
0.2306	-12.0239
0.2307	-11.5967
0.2308	-11.3983
0.2309	-12.2681
0.231	-9.75037
0.2311	-11.8103
0.2312	-10.2539
0.2313	-11.0168
0.2314	-10.5133
0.2315	-11.2
0.2316	-10.498
0.2317	-10.437
0.2318	-10.498
0.2319	-11.9629
0.232	-9.71985
0.2321	-11.4288
0.2322	-11.2152
0.2323	-11.1389
0.2324	-10.9863
0.2325	-12.3901
0.2326	-10.9558
0.2327	-11.2
0.2328	-8.8501
0.2329	-4.86755
0.233	-5.31006
0.2331	-5.69153
0.2332	-4.91333
0.2333	-5.88989
0.2334	-4.60815
0.2335	-5.75256
0.2336	-5.26428
0.2337	-4.92859
0.2338	-5.82886
0.2339	-5.64575
0.234	-4.66919
0.2341	-5.79834
0.2342	-5.98144
0.2343	-9.12475
0.2344	-10.6049
0.2345	-10.5896
0.2346	-10.4523
0.2347	-11.1847
0.2348	-11.795
0.2349	-11.9934
0.235	-9.53674
0.2351	-9.24683
0.2352	-11.2
0.2353	-11.322
0.2354	-11.0779
0.2355	-11.0321
0.2356	-11.2305
0.2357	-12.2833
0.2358	-10.8795
0.2359	-12.2528
0.236	-9.99451
0.2361	-9.67407
0.2362	-11.1389
0.2363	-12.5275
0.2364	-10.4675
0.2365	-9.8114
0.2366	-12.8937
0.2367	-11.261
0.2368	-11.6119
0.2369	-11.4136
0.237	-11.6119
0.2371	-11.5509
0.2372	-11.261
0.2373	-10.8185
0.2374	-11.9019
0.2375	-12.146
0.2376	-10.2539
0.2377	-11.6577
0.2378	-12.1613
0.2379	-10.5743
0.238	-11.7798
0.2381	-11.2762
0.2382	-12.3901
0.2383	-11.0321
0.2384	-12.6495
0.2385	-12.8326
0.2386	-10.1929
0.2387	-12.3291
0.2388	-11.3983
0.2389	-12.0087
0.239	-11.9324
0.2391	-11.0474
0.2392	-11.7187
0.2393	-11.2
0.2394	-11.3525
0.2395	-10.2844
0.2396	-10.8795
0.2397	-9.75037
0.2398	-11.6272
0.2399	-10.9863
0.24	-11.322
0.2401	-11.0168
0.2402	-12.5122
0.2403	-10.9253
0.2404	-12.1613
0.2405	-10.9253
0.2406	-10.5743
0.2407	-11.3373
0.2408	-11.4441
0.2409	-10.5133
0.241	-13.5651
0.2411	-11.5356
0.2412	-11.4288
0.2413	-9.75037
0.2414	-11.6577
0.2415	-10.6049
0.2416	-11.2152
0.2417	-11.7035
0.2418	-9.06372
0.2419	-11.2762
0.242	-11.5356
0.2421	-11.3525
0.2422	-12.207
0.2423	-11.673
0.2424	-11.3983
0.2425	-11.5509
0.2426	-10.4523
0.2427	-12.2528
0.2428	-10.8185
0.2429	-11.4441
0.243	-9.97925
0.2431	-11.1237
0.2432	-10.9406
0.2433	-9.06372
0.2434	-10.9711
0.2435	-12.0087
0.2436	-12.1765
0.2437	-11.6425
0.2438	-11.2915
0.2439	-10.2081
0.244	-12.1155
0.2441	-9.73511
0.2442	-10.2234
0.2443	-10.4523
0.2444	-10.5286
0.2445	-11.8866
0.2446	-11.3831
0.2447	-12.1002
0.2448	-11.5051
0.2449	-11.5814
0.245	-12.2223
0.2451	-10.8948
0.2452	-11.9476
0.2453	-11.8103
0.2454	-11.0779
0.2455	-11.3831
0.2456	-9.91821
0.2457	-11.9324
0.2458	-10.6049
0.2459	-11.0321
0.246	-10.498
0.2461	-10.8948
0.2462	-16.7999
0.2463	-13.9313
0.2464	-13.382
0.2465	-11.7645
0.2466	-12.97
0.2467	-11.1694
0.2468	-11.1237
0.2469	-11.322
0.247	-12.5885
0.2471	-11.9171
0.2472	-10.6049
0.2473	-10.788
0.2474	-10.9558
0.2475	-9.90295
0.2476	-10.1013
0.2477	-11.673
0.2478	-11.322
0.2479	-12.3596
0.248	-11.4441
0.2481	-10.6506
0.2482	-12.085
0.2483	-10.7574
0.2484	-10.5133
0.2485	-10.6049
0.2486	-12.4054
0.2487	-11.5356
0.2488	-11.2915
0.2489	-11.5051
0.249	-11.4746
0.2491	-12.4359
0.2492	-11.4899
0.2493	-11.0474
0.2494	-12.1307
0.2495	-11.4288
0.2496	-10.788
0.2497	-11.6577
0.2498	-6.57654
0.2499	-11.8866
0.25	-11.2457
0.2501	-11.9476
0.2502	-11.3068
0.2503	-11.6577
0.2504	-11.7798
0.2505	-11.1389
0.2506	-10.8948
0.2507	-11.2305
0.2508	-10.5896
0.2509	-11.0626
0.251	-11.0626
0.2511	-11.1389
0.2512	-10.9863
0.2513	-11.7187
0.2514	-10.6812
0.2515	-10.6964
0.2516	-10.9863
0.2517	-11.4136
0.2518	-10.3607
0.2519	-11.7187
0.252	-11.5356
0.2521	-10.9253
0.2522	-11.5509
0.2523	-11.261
0.2524	-10.7727
0.2525	-11.3068
0.2526	-10.8185
0.2527	-11.9476
0.2528	-11.261
0.2529	-11.4746
0.253	-10.2997
0.2531	-11.0474
0.2532	-10.849
0.2533	-4.92859
0.2534	-9.33838
0.2535	-9.07898
0.2536	-11.3983
0.2537	-10.1166
0.2538	-10.6201
0.2539	-9.88769
0.254	-10.7727
0.2541	-9.90295
0.2542	-10.1013
0.2543	-11.8713
0.2544	-10.91
0.2545	-10.8032
0.2546	-9.15527
0.2547	-10.4828
0.2548	-11.0931
0.2549	-10.0708
0.255	-10.2692
0.2551	-10.1776
0.2552	-10.5591
0.2553	-11.5814
0.2554	-11.6882
0.2555	-10.5438
0.2556	-11.2457
0.2557	-9.87244
0.2558	-11.0016
0.2559	-12.1155
0.256	-11.1694
0.2561	-11.5356
0.2562	-12.3444
0.2563	-10.9711
0.2564	-11.4593
0.2565	-11.0779
0.2566	-11.1694
0.2567	-11.6272
0.2568	-10.91
0.2569	-11.4288
0.257	-10.6201
0.2571	-10.5743
0.2572	-11.6272
0.2573	-11.5204
0.2574	-11.1389
0.2575	-11.3068
0.2576	-12.3444
0.2577	-11.9934
0.2578	-10.5438
0.2579	-11.9019
0.258	-11.0931
0.2581	-10.6049
0.2582	-12.1765
0.2583	-12.1002
0.2584	-12.7411
0.2585	-12.0087
0.2586	-11.3068
0.2587	-11.2305
0.2588	-10.6964
0.2589	-9.99451
0.259	-11.2915
0.2591	-11.3525
0.2592	-11.9019
0.2593	-11.7645
0.2594	-11.6882
0.2595	-11.7035
0.2596	-11.2
0.2597	-11.6882
0.2598	-11.6272
0.2599	-11.2152
0.26	-10.7117
0.2601	-11.5356
0.2602	-12.1002
0.2603	-11.9629
0.2604	-10.2844
0.2605	-11.8256
0.2606	-11.2
0.2607	-11.9476
0.2608	-11.8866
0.2609	-11.7645
0.261	-10.1318
0.2611	-11.1694
0.2612	-8.80432
0.2613	-9.552
0.2614	-10.8948
0.2615	-11.2457
0.2616	-10.3149
0.2617	-10.7422
0.2618	-11.1542
0.2619	-12.6648
0.262	-10.3912
0.2621	-10.2539
0.2622	-10.376
0.2623	-7.96509
0.2624	-11.8866
0.2625	-11.5814
0.2626	-10.7574
0.2627	-10.7269
0.2628	-10.6049
0.2629	-11.0626
0.263	-10.8795
0.2631	-11.5204
0.2632	-11.7187
0.2633	-12.5732
0.2634	-10.5286
0.2635	-10.9558
0.2636	-11.734
0.2637	-11.0321
0.2638	-11.8561
0.2639	-10.8337
0.264	-11.7187
0.2641	-11.5662
0.2642	-12.0087
0.2643	-12.207
0.2644	-10.8337
0.2645	-11.5814
0.2646	-11.673
0.2647	-10.5438
0.2648	-10.6201
0.2649	-12.0544
0.265	-12.1307
0.2651	-12.146
0.2652	-12.1918
0.2653	-11.2152
0.2654	-11.7187
0.2655	-11.5509
0.2656	-10.9558
0.2657	-10.1929
0.2658	-11.0321
0.2659	-10.8337
0.266	-12.4969
0.2661	-11.1694
0.2662	-10.6049
0.2663	-11.1084
0.2664	-12.2223
0.2665	-10.498
0.2666	-11.6119
0.2667	-11.4136
0.2668	-12.1765
0.2669	-10.4218
0.267	-11.1389
0.2671	-12.3596
0.2672	-12.1002
0.2673	-10.6659
0.2674	-11.1389
0.2675	-12.6495
0.2676	-11.2457
0.2677	-11.5814
0.2678	-10.788
0.2679	-12.0544
0.268	-12.7563
0.2681	-11.4441
0.2682	-10.91
0.2683	-11.3678
0.2684	-10.9558
0.2685	-11.1694
0.2686	-11.4899
0.2687	-13.0615
0.2688	-11.4593
0.2689	-10.2386
0.269	-10.6354
0.2691	-11.4746
0.2692	-12.1155
0.2693	-12.1307
0.2694	-11.2915
0.2695	-10.7727
0.2696	-12.1918
0.2697	-11.2
0.2698	-11.5204
0.2699	-11.5204
0.27	-12.0697
0.2701	-10.376
0.2702	-11.4899
0.2703	-12.2528
0.2704	-11.5967
0.2705	-9.85718
0.2706	-11.5814
0.2707	-11.8561
0.2708	-11.6272
0.2709	-11.0474
0.271	-11.6272
0.2711	-9.33838
0.2712	-11.734
0.2713	-11.7187
0.2714	-11.7187
0.2715	-11.1694
0.2716	-8.46863
0.2717	-11.8408
0.2718	-11.2762
0.2719	-11.9476
0.272	-12.1002
0.2721	-11.2915
0.2722	-10.9558
0.2723	-10.6506
0.2724	-11.8561
0.2725	-10.6812
0.2726	-12.4054
0.2727	-12.3444
0.2728	-11.2305
0.2729	-11.673
0.273	-11.1084
0.2731	-11.7798
0.2732	-10.437
0.2733	-13.3362
0.2734	-11.3678
0.2735	-10.7422
0.2736	-11.0779
0.2737	-10.4218
0.2738	-10.9253
0.2739	-11.9324
0.274	-10.498
0.2741	-10.7727
0.2742	-10.3455
0.2743	-11.5204
0.2744	-11.1847
0.2745	-10.9558
0.2746	-10.1318
0.2747	-10.2234
0.2748	-10.7574
0.2749	-11.0016
0.275	-11.4593
0.2751	-11.734
0.2752	-10.7574
0.2753	-11.5204
0.2754	-9.49097
0.2755	-10.9711
0.2756	-11.0931
0.2757	-11.261
0.2758	-11.0321
0.2759	-10.9711
0.276	-11.1542
0.2761	-10.91
0.2762	-11.2762
0.2763	-11.1389
0.2764	-10.6812
0.2765	-11.8256
0.2766	-10.5896
0.2767	-11.9781
0.2768	-11.2
0.2769	-10.9406
0.277	-11.8561
0.2771	-11.3983
0.2772	-11.0779
0.2773	-12.2986
0.2774	-12.0392
0.2775	-11.0626
0.2776	-10.1776
0.2777	-11.0168
0.2778	-12.1918
0.2779	-11.5967
0.278	-10.6812
0.2781	-11.3373
0.2782	-11.6272
0.2783	-11.0474
0.2784	-11.4899
0.2785	-11.5814
0.2786	-11.2915
0.2787	-11.2457
0.2788	-11.6882
0.2789	-11.9781
0.279	-10.849
0.2791	-12.0087
0.2792	-10.3912
0.2793	-12.2223
0.2794	-12.3749
0.2795	-10.8948
0.2796	-11.7645
0.2797	-12.0087
0.2798	-11.2762
0.2799	-10.849
0.28	-10.7117
0.2801	-10.5286
0.2802	-12.2223
0.2803	-11.8561
0.2804	-11.261
0.2805	-12.0087
0.2806	-11.3373
0.2807	-10.9558
0.2808	-11.5967
0.2809	-11.6577
0.281	-11.8103
0.2811	-11.7645
0.2812	-11.5814
0.2813	-10.2386
0.2814	-11.6577
0.2815	-12.6953
0.2816	-11.0016
0.2817	-10.8032
0.2818	-11.6425
0.2819	-14.0839
0.282	-11.4288
0.2821	-12.2986
0.2822	-10.9558
0.2823	-12.3749
0.2824	-11.0016
0.2825	-12.0087
0.2826	-10.5896
0.2827	-11.3983
0.2828	-10.849
0.2829	-11.734
0.283	-11.3525
0.2831	-11.322
0.2832	-10.1929
0.2833	-11.3373
0.2834	-10.8643
0.2835	-11.4136
0.2836	-11.5662
0.2837	-12.207
0.2838	-11.795
0.2839	-10.5286
0.284	-12.085
0.2841	-11.1847
0.2842	-10.2539
0.2843	-10.5286
0.2844	-10.8337
0.2845	-11.1084
0.2846	-11.7187
0.2847	-9.24683
0.2848	-11.4288
0.2849	-11.0779
0.285	-12.7258
0.2851	-11.8713
0.2852	-11.0016
0.2853	-10.2997
0.2854	-11.5662
0.2855	-12.1002
0.2856	-11.673
0.2857	-11.8256
0.2858	-11.5662
0.2859	-11.795
0.286	-11.2762
0.2861	-11.0931
0.2862	-11.8408
0.2863	-12.3444
0.2864	-10.7117
0.2865	-12.2528
0.2866	-11.3068
0.2867	-12.2375
0.2868	-10.91
0.2869	-11.2152
0.287	-11.3373
0.2871	-11.261
0.2872	-11.7187
0.2873	-12.2833
0.2874	-10.4675
0.2875	-12.0087
0.2876	-10.6354
0.2877	-11.7645
0.2878	-12.4054
0.2879	-11.0931
0.288	-11.6272
0.2881	-11.4899
0.2882	-11.2457
0.2883	-9.68933
0.2884	-11.9019
0.2885	-10.788
0.2886	-12.1918
0.2887	-10.9253
0.2888	-11.0931
0.2889	-11.795
0.289	-11.9934
0.2891	-11.7493
0.2892	-12.4664
0.2893	-11.4899
0.2894	-10.3912
0.2895	-12.4054
0.2896	-13.031
0.2897	-12.2223
0.2898	-11.8408
0.2899	-11.5967
0.29	-12.0544
0.2901	-12.8326
0.2902	-11.261
0.2903	-11.4899
0.2904	-11.4899
0.2905	-10.8337
0.2906	-11.6425
0.2907	-11.4593
0.2908	-11.4746
0.2909	-12.7716
0.291	-11.5356
0.2911	-13.0463
0.2912	-11.3525
0.2913	-10.6506
0.2914	-12.0239
0.2915	-10.5133
0.2916	-11.8561
0.2917	-12.2375
0.2918	-11.8256
0.2919	-10.6659
0.292	-10.7117
0.2921	-11.1542
0.2922	-11.5356
0.2923	-12.3291
0.2924	-10.4065
0.2925	-10.9253
0.2926	-11.9171
0.2927	-11.6577
0.2928	-11.2152
0.2929	-11.9934
0.293	-12.0087
0.2931	-11.795
0.2932	-10.7574
0.2933	-11.8561
0.2934	-11.2
0.2935	-12.2833
0.2936	-10.9558
0.2937	-11.795
0.2938	-12.3138
0.2939	-11.6119
0.294	-11.5814
0.2941	-11.6119
0.2942	-10.5591
0.2943	-12.0087
0.2944	-11.0474
0.2945	-11.2152
0.2946	-12.0239
0.2947	-11.8866
0.2948	-11.795
0.2949	-10.9253
0.295	-11.9629
0.2951	-11.7798
0.2952	-11.5051
0.2953	-10.8032
0.2954	-11.5051
0.2955	-11.1847
0.2956	-12.2986
0.2957	-12.1307
0.2958	-9.64355
0.2959	-11.4899
0.296	-11.5814
0.2961	-11.5814
0.2962	-10.7117
0.2963	-11.7187
0.2964	-11.9324
0.2965	-10.2692
0.2966	-11.4441
0.2967	-11.5814
0.2968	-10.8795
0.2969	-11.4593
0.297	-10.6354
0.2971	-11.9171
0.2972	-11.4288
0.2973	-11.9934
0.2974	-12.5275
0.2975	-12.558
0.2976	-11.673
0.2977	-11.6577
0.2978	-10.7269
0.2979	-11.5662
0.298	-11.5814
0.2981	-10.5286
0.2982	-11.4593
0.2983	-12.4207
0.2984	-10.6659
0.2985	-12.2681
0.2986	-10.849
0.2987	-11.734
0.2988	-12.0087
0.2989	-11.8408
0.299	-12.1613
0.2991	-11.0168
0.2992	-12.2681
0.2993	-12.5732
0.2994	-10.849
0.2995	-10.9711
0.2996	-13.6871
0.2997	-12.3138
0.2998	-10.0403
0.2999	-11.1084
0.3	-13.1836
0.3001	-10.8643
0.3002	-12.1765
0.3003	-11.8256
0.3004	-11.5509
0.3005	-10.9863
0.3006	-12.3138
0.3007	-10.7269
0.3008	-12.2681
0.3009	-12.0392
0.301	-12.3444
0.3011	-10.8795
0.3012	-11.734
0.3013	-12.4817
0.3014	-11.4288
0.3015	-11.3831
0.3016	-11.0626
0.3017	-11.5356
0.3018	-10.4828
0.3019	-12.1613
0.302	-12.4359
0.3021	-9.99451
0.3022	-12.3138
0.3023	-11.3983
0.3024	-11.1237
0.3025	-11.4441
0.3026	-8.19397
0.3027	-11.9171
0.3028	-8.97217
0.3029	-12.1765
0.303	-10.4218
0.3031	-11.2915
0.3032	-11.9171
0.3033	-10.9863
0.3034	-11.2915
0.3035	-10.5743
0.3036	-13.4277
0.3037	-11.2457
0.3038	-11.5509
0.3039	-12.0544
0.304	-11.1694
0.3041	-10.788
0.3042	-11.7645
0.3043	-12.0697
0.3044	-12.1002
0.3045	-9.35364
0.3046	-11.0321
0.3047	-12.146
0.3048	-10.5896
0.3049	-10.5591
0.305	-11.5356
0.3051	-11.5967
0.3052	-11.2305
0.3053	-11.6577
0.3054	-11.9781
0.3055	-11.6577
0.3056	-10.6354
0.3057	-11.322
0.3058	-10.5896
0.3059	-8.48389
0.306	-11.5967
0.3061	-11.322
0.3062	-9.73511
0.3063	-10.8185
0.3064	-12.4817
0.3065	-10.9863
0.3066	-12.0544
0.3067	-11.2762
0.3068	-11.9476
0.3069	-12.207
0.307	-10.9253
0.3071	-11.8866
0.3072	-10.9711
0.3073	-11.8256
0.3074	-12.085
0.3075	-10.9863
0.3076	-11.1389
0.3077	-11.6577
0.3078	-11.3831
0.3079	-6.10352
0.308	-9.97925
0.3081	-11.9781
0.3082	-11.5814
0.3083	-12.8479
0.3084	-11.1542
0.3085	-11.4136
0.3086	-11.3068
0.3087	-11.6425
0.3088	-10.5896
0.3089	-10.9558
0.309	-10.8337
0.3091	-11.7035
0.3092	-11.673
0.3093	-10.7574
0.3094	-10.9863
0.3095	-11.734
0.3096	-11.4593
0.3097	-11.322
0.3098	-11.1084
0.3099	-11.4746
0.31	-11.9324
0.3101	-12.2681
0.3102	-11.2305
0.3103	-11.4136
0.3104	-11.3373
0.3105	-10.498
0.3106	-11.2305
0.3107	-11.5967
0.3108	-11.6272
0.3109	-10.7574
0.311	-11.8408
0.3111	-11.673
0.3112	-11.2762
0.3113	-11.0474
0.3114	-10.8185
0.3115	-11.0016
0.3116	-10.788
0.3117	-11.6425
0.3118	-10.5743
0.3119	-9.82666
0.312	-11.0321
0.3121	-11.7645
0.3122	-10.9253
0.3123	-10.7574
0.3124	-8.56018
0.3125	-11.8866
0.3126	-10.0403
0.3127	-12.0087
0.3128	-10.498
0.3129	-10.9711
0.313	-10.3912
0.3131	-11.8256
0.3132	-11.5204
0.3133	-11.8256
0.3134	-11.2
0.3135	-12.7716
0.3136	-11.4441
0.3137	-12.085
0.3138	-11.3068
0.3139	-9.61304
0.314	-11.7035
0.3141	-11.8561
0.3142	-10.437
0.3143	-11.3983
0.3144	-11.0626
0.3145	-9.82666
0.3146	-10.9863
0.3147	-11.4441
0.3148	-11.261
0.3149	-12.0544
0.315	-10.9863
0.3151	-10.5896
0.3152	-11.5662
0.3153	-11.6425
0.3154	-11.3678
0.3155	-11.3068
0.3156	-11.9629
0.3157	-11.4899
0.3158	-11.8561
0.3159	-11.3831
0.316	-11.1847
0.3161	-12.0544
0.3162	-11.5967
0.3163	-11.3831
0.3164	-11.8256
0.3165	-11.9324
0.3166	-11.5509
0.3167	-13.0768
0.3168	-10.5591
0.3169	-11.3983
0.317	-10.9406
0.3171	-11.3525
0.3172	-11.3373
0.3173	-11.9934
0.3174	-11.673
0.3175	-10.9863
0.3176	-11.3373
0.3177	-11.2305
0.3178	-10.3302
0.3179	-10.8032
0.318	-11.3068
0.3181	-11.1542
0.3182	-11.5509
0.3183	-11.7645
0.3184	-11.4441
0.3185	-9.38415
0.3186	-11.2305
0.3187	-11.1084
0.3188	-12.7258
0.3189	-8.65173
0.319	-11.7645
0.3191	-12.5885
0.3192	-12.2833
0.3193	-9.26208
0.3194	-12.1918
0.3195	-10.4065
0.3196	-11.8561
0.3197	-11.3525
0.3198	-11.3525
0.3199	-10.2844
0.32	-10.8185
0.3201	-11.4441
0.3202	-11.5814
0.3203	-11.3373
0.3204	-12.1307
0.3205	-10.6659
0.3206	-11.8256
0.3207	-10.1776
0.3208	-13.3514
0.3209	-12.0087
0.321	-12.619
0.3211	-12.7411
0.3212	-12.0239
0.3213	-11.3525
0.3214	-11.9019
0.3215	-11.5814
0.3216	-11.0474
0.3217	-11.8713
0.3218	-11.6577
0.3219	-11.0321
0.322	-12.4969
0.3221	-11.2152
0.3222	-11.1084
0.3223	-12.7106
0.3224	-12.6648
0.3225	-11.795
0.3226	-11.261
0.3227	-12.8937
0.3228	-11.2915
0.3229	-11.2762
0.323	-11.734
0.3231	-10.8795
0.3232	-12.7106
0.3233	-11.7493
0.3234	-10.4675
0.3235	-12.2986
0.3236	-11.5204
0.3237	-12.3444
0.3238	-10.7117
0.3239	-12.1307
0.324	-10.6049
0.3241	-11.3831
0.3242	-12.4207
0.3243	-12.0087
0.3244	-11.734
0.3245	-11.2
0.3246	-11.9019
0.3247	-10.8032
0.3248	-11.0626
0.3249	-12.2833
0.325	-10.3149
0.3251	-11.0321
0.3252	-11.2762
0.3253	-12.0239
0.3254	-12.3291
0.3255	-10.2997
0.3256	-9.99451
0.3257	-11.2
0.3258	-10.3149
0.3259	-11.6882
0.326	-10.7117
0.3261	-11.673
0.3262	-11.0779
0.3263	-11.5051
0.3264	-11.5814
0.3265	-11.0168
0.3266	-11.5509
0.3267	-12.4664
0.3268	-11.3831
0.3269	-11.5356
0.327	-11.1084
0.3271	-12.4664
0.3272	-11.4288
0.3273	-10.8185
0.3274	-12.2986
0.3275	-12.5427
0.3276	-12.4817
0.3277	-11.1389
0.3278	-12.8479
0.3279	-11.1389
0.328	-10.6201
0.3281	-10.376
0.3282	-12.5732
0.3283	-11.6119
0.3284	-12.3444
0.3285	-11.4288
0.3286	-12.2986
0.3287	-10.9711
0.3288	-12.7563
0.3289	-11.7035
0.329	-11.6119
0.3291	-12.1002
0.3292	-11.0168
0.3293	-11.8561
0.3294	-10.7727
0.3295	-11.673
0.3296	-13.3667
0.3297	-12.3291
0.3298	-11.2
0.3299	-11.9781
0.33	-11.5051
0.3301	-12.3596
0.3302	-11.3983
0.3303	-11.4136
0.3304	-11.734
0.3305	-11.3831
0.3306	-11.5356
0.3307	-12.4664
0.3308	-11.3678
0.3309	-11.261
0.331	-11.4441
0.3311	-11.4136
0.3312	-11.7798
0.3313	-11.1084
0.3314	-11.3678
0.3315	-11.4288
0.3316	-10.6506
0.3317	-10.4065
0.3318	-11.1389
0.3319	-10.788
0.332	-11.0016
0.3321	-11.4593
0.3322	-11.8408
0.3323	-10.4675
0.3324	-12.8479
0.3325	-11.322
0.3326	-10.4675
0.3327	-11.0016
0.3328	-11.734
0.3329	-12.4054
0.333	-10.2692
0.3331	-12.4359
0.3332	-11.6577
0.3333	-11.4746
0.3334	-11.261
0.3335	-12.0544
0.3336	-11.8866
0.3337	-12.2986
0.3338	-10.4828
0.3339	-9.71985
0.334	-11.2305
0.3341	-11.734
0.3342	-11.3983
0.3343	-11.7645
0.3344	-11.3831
0.3345	-11.5814
0.3346	-9.26208
0.3347	-11.5356
0.3348	-10.91
0.3349	-11.3678
0.335	-11.261
0.3351	-12.1613
0.3352	-15.686
0.3353	-13.2294
0.3354	-12.3749
0.3355	-12.6648
0.3356	-11.5662
0.3357	-11.4899
0.3358	-11.6425
0.3359	-10.3912
0.336	-10.4218
0.3361	-10.7117
0.3362	-10.376
0.3363	-11.2152
0.3364	-11.9934
0.3365	-12.0392
0.3366	-11.7798
0.3367	-10.5591
0.3368	-11.0474
0.3369	-11.5204
0.337	-12.146
0.3371	-10.6964
0.3372	-12.6495
0.3373	-10.6964
0.3374	-12.1307
0.3375	-10.5896
0.3376	-12.2528
0.3377	-11.7798
0.3378	-10.7422
0.3379	-11.8561
0.338	-10.4065
0.3381	-10.9558
0.3382	-12.0544
0.3383	-12.1307
0.3384	-11.8561
0.3385	-11.673
0.3386	-12.0087
0.3387	-12.3901
0.3388	-10.1776
0.3389	-12.0239
0.339	-11.0016
0.3391	-11.7187
0.3392	-10.7727
0.3393	-12.146
0.3394	-10.849
0.3395	-11.8713
0.3396	-11.4593
0.3397	-12.2223
0.3398	-11.3678
0.3399	-12.4664
0.34	-10.788
0.3401	-11.7035
0.3402	-11.3525
0.3403	-11.5967
0.3404	-11.3983
0.3405	-12.558
0.3406	-12.9242
0.3407	-11.5204
0.3408	-11.7645
0.3409	-11.7035
0.341	-12.5275
0.3411	-11.5356
0.3412	-11.7645
0.3413	-11.0626
0.3414	-10.7117
0.3415	-11.3373
0.3416	-11.4746
0.3417	-11.5356
0.3418	-10.2539
0.3419	-11.5356
0.342	-11.7798
0.3421	-11.9476
0.3422	-12.0697
0.3423	-11.0931
0.3424	-11.0779
0.3425	-10.5286
0.3426	-11.3068
0.3427	-11.5204
0.3428	-4.95911
0.3429	-5.69153
0.343	-6.62231
0.3431	-5.49316
0.3432	-11.5051
0.3433	-10.6506
0.3434	-11.8408
0.3435	-10.7269
0.3436	-12.0392
0.3437	-11.3525
0.3438	-10.9406
0.3439	-11.3525
0.344	-10.8185
0.3441	-11.7035
0.3442	-10.6812
0.3443	-10.9711
0.3444	-10.5286
0.3445	-11.2762
0.3446	-5.7373
0.3447	-11.8408
0.3448	-10.9406
0.3449	-10.2997
0.345	-11.3831
0.3451	-11.3983
0.3452	-12.558
0.3453	-10.8032
0.3454	-11.7035
0.3455	-11.2305
0.3456	-11.3678
0.3457	-12.1307
0.3458	-10.8948
0.3459	-12.4207
0.346	-12.2375
0.3461	-11.0779
0.3462	-10.5133
0.3463	-10.3912
0.3464	-12.146
0.3465	-10.5896
0.3466	-10.3912
0.3467	-11.9324
0.3468	-10.8795
0.3469	-12.3749
0.347	-10.849
0.3471	-10.8032
0.3472	-11.0474
0.3473	-11.9476
0.3474	-11.5356
0.3475	-11.1694
0.3476	-11.1389
0.3477	-11.8561
0.3478	-13.3362
0.3479	-11.795
0.348	-11.4288
0.3481	-12.1002
0.3482	-10.8185
0.3483	-11.7493
0.3484	-10.9253
0.3485	-11.4136
0.3486	-11.2305
0.3487	-11.261
0.3488	-12.2986
0.3489	-6.13403
0.349	-5.76782
0.3491	-5.64575
0.3492	-5.75256
0.3493	-6.39343
0.3494	-6.95801
0.3495	-6.43921
0.3496	-5.92041
0.3497	-11.7798
0.3498	-12.3596
0.3499	-12.6495
0.35	-11.9171
0.3501	-10.7269
0.3502	-11.9019
0.3503	-10.4065
0.3504	-13.6261
0.3505	-11.3525
0.3506	-11.0931
0.3507	-11.6425
0.3508	-11.8561
0.3509	-11.734
0.351	-6.28662
0.3511	-4.85229
0.3512	-6.98852
0.3513	-4.28772
0.3514	-8.31604
0.3515	-11.322
0.3516	-11.6577
0.3517	-10.7269
0.3518	-11.3831
0.3519	-12.7716
0.352	-11.5814
0.3521	-11.4593
0.3522	-10.4065
0.3523	-10.0555
0.3524	-11.6272
0.3525	-11.2762
0.3526	-10.8643
0.3527	-11.7798
0.3528	-11.1542
0.3529	-11.6119
0.353	-10.3149
0.3531	-10.7117
0.3532	-11.2
0.3533	-10.9558
0.3534	-10.5438
0.3535	-11.6882
0.3536	-10.7269
0.3537	-11.2915
0.3538	-10.6049
0.3539	-10.6354
0.354	-10.0403
0.3541	-12.619
0.3542	-12.085
0.3543	-10.2386
0.3544	-11.3068
0.3545	-10.7727
0.3546	-11.0016
0.3547	-9.82666
0.3548	-9.70459
0.3549	-12.1155
0.355	-11.1084
0.3551	-10.8032
0.3552	-10.0403
0.3553	-10.2081
0.3554	-10.6201
0.3555	-10.7117
0.3556	-11.5967
0.3557	-11.0321
0.3558	-11.1084
0.3559	-11.4746
0.356	-10.5133
0.3561	-11.5204
0.3562	-10.5591
0.3563	-11.6425
0.3564	-11.7645
0.3565	-12.2223
0.3566	-11.1237
0.3567	-11.673
0.3568	-11.2762
0.3569	-11.3831
0.357	-12.1307
0.3571	-11.9171
0.3572	-11.261
0.3573	-11.1847
0.3574	-9.94873
0.3575	-11.6425
0.3576	-11.5662
0.3577	-11.3983
0.3578	-10.4218
0.3579	-10.2386
0.358	-11.7493
0.3581	-10.788
0.3582	-11.4136
0.3583	-11.2915
0.3584	-12.6343
0.3585	-9.91821
0.3586	-11.9019
0.3587	-11.4899
0.3588	-11.1389
0.3589	-11.5204
0.359	-12.7106
0.3591	-10.91
0.3592	-11.4593
0.3593	-11.5356
0.3594	-11.4441
0.3595	-11.5662
0.3596	-11.8866
0.3597	-11.5204
0.3598	-11.6577
0.3599	-11.795
0.36	-10.5591
0.3601	-11.1847
0.3602	-12.4817
0.3603	-10.8032
0.3604	-10.0708
0.3605	-11.2152
0.3606	-11.7798
0.3607	-10.2386
0.3608	-12.0544
0.3609	-10.6659
0.361	-12.2681
0.3611	-10.9863
0.3612	-10.9253
0.3613	-8.34656
0.3614	-11.0474
0.3615	-11.2152
0.3616	-11.7187
0.3617	-12.3444
0.3618	-10.7117
0.3619	-10.437
0.362	-10.788
0.3621	-11.6882
0.3622	-12.8479
0.3623	-12.1155
0.3624	-10.025
0.3625	-10.1471
0.3626	-10.8795
0.3627	-11.9934
0.3628	-11.9629
0.3629	-11.1389
0.363	-10.1318
0.3631	-11.1694
0.3632	-10.6659
0.3633	-10.3302
0.3634	-11.7493
0.3635	-10.8948
0.3636	-10.8337
0.3637	-11.0474
0.3638	-10.5286
0.3639	-12.0239
0.364	-10.8948
0.3641	-11.322
0.3642	-10.2386
0.3643	-12.0087
0.3644	-11.5356
0.3645	-10.2234
0.3646	-12.3138
0.3647	-11.795
0.3648	-11.4136
0.3649	-11.9171
0.365	-12.085
0.3651	-12.3596
0.3652	-11.0016
0.3653	-10.1318
0.3654	-12.1307
0.3655	-11.1694
0.3656	-12.4054
0.3657	-12.2986
0.3658	-11.3068
0.3659	-11.6119
0.366	-11.1237
0.3661	-11.4441
0.3662	-11.1237
0.3663	-11.5967
0.3664	-10.4828
0.3665	-12.4512
0.3666	-10.0861
0.3667	-12.085
0.3668	-11.322
0.3669	-11.1389
0.367	-11.5509
0.3671	-10.5591
0.3672	-10.0403
0.3673	-11.4593
0.3674	-11.3678
0.3675	-10.9558
0.3676	-11.795
0.3677	-12.9395
0.3678	-11.9629
0.3679	-11.9171
0.368	-11.1084
0.3681	-11.6425
0.3682	-11.5967
0.3683	-11.1542
0.3684	-11.5356
0.3685	-11.4288
0.3686	-11.734
0.3687	-10.7269
0.3688	-11.5204
0.3689	-11.3983
0.369	-10.9406
0.3691	-11.2915
0.3692	-10.9863
0.3693	-11.0168
0.3694	-9.85718
0.3695	-12.5885
0.3696	-11.6425
0.3697	-10.9406
0.3698	-11.9171
0.3699	-11.7798
0.37	-12.0697
0.3701	-10.7727
0.3702	-11.4899
0.3703	-11.0626
0.3704	-11.9019
0.3705	-11.3525
0.3706	-11.1694
0.3707	-11.5814
0.3708	-11.3068
0.3709	-12.0697
0.371	-11.8866
0.3711	-11.4746
0.3712	-11.2762
0.3713	-11.0016
0.3714	-11.9476
0.3715	-6.54602
0.3716	-4.86755
0.3717	-4.62341
0.3718	-4.65393
0.3719	-5.38635
0.372	-4.91333
0.3721	-4.98962
0.3722	-5.52368
0.3723	-11.0931
0.3724	-10.8032
0.3725	-10.9558
0.3726	-10.437
0.3727	-11.734
0.3728	-10.9711
0.3729	-11.7645
0.373	-11.0016
0.3731	-10.1776
0.3732	-11.3068
0.3733	-11.4441
0.3734	-11.4899
0.3735	-10.6506
0.3736	-10.8185
0.3737	-11.0321
0.3738	-11.5051
0.3739	-12.0392
0.374	-10.498
0.3741	-11.8408
0.3742	-11.6272
0.3743	-10.437
0.3744	-10.5133
0.3745	-10.8795
0.3746	-10.6506
0.3747	-9.97925
0.3748	-11.5662
0.3749	-10.9711
0.375	-11.6119
0.3751	-10.7422
0.3752	-10.2997
0.3753	-11.8866
0.3754	-11.5509
0.3755	-10.788
0.3756	-11.5356
0.3757	-10.3302
0.3758	-11.8408
0.3759	-10.498
0.376	-11.8561
0.3761	-8.39233
0.3762	-4.37927
0.3763	-6.22559
0.3764	-4.50134
0.3765	-4.94385
0.3766	-5.23376
0.3767	-5.38635
0.3768	-5.46265
0.3769	-4.79126
0.377	-5.92041
0.3771	-4.88281
0.3772	-6.073
0.3773	-5.64575
0.3774	-5.2948
0.3775	-6.073
0.3776	-6.04248
0.3777	-5.5542
0.3778	-5.15747
0.3779	-4.60815
0.378	-5.82886
0.3781	-4.69971
0.3782	-5.76782
0.3783	-7.93457
0.3784	-10.2692
0.3785	-12.8937
0.3786	-11.1084
0.3787	-11.4288
0.3788	-10.6506
0.3789	-11.8561
0.379	-11.1847
0.3791	-11.4899
0.3792	-11.5662
0.3793	-11.0931
0.3794	-10.7269
0.3795	-11.4593
0.3796	-11.9781
0.3797	-11.4899
0.3798	-10.3302
0.3799	-11.4136
0.38	-10.6506
0.3801	-11.5051
0.3802	-12.146
0.3803	-12.3749
0.3804	-10.8643
0.3805	-11.3831
0.3806	-11.8103
0.3807	-11.9934
0.3808	-11.3525
0.3809	-11.5662
0.381	-11.1847
0.3811	-11.7035
0.3812	-11.9629
0.3813	-10.8185
0.3814	-11.5662
0.3815	-11.3678
0.3816	-10.5743
0.3817	-11.4441
0.3818	-11.0168
0.3819	-10.8948
0.382	-11.4441
0.3821	-10.9558
0.3822	-10.7422
0.3823	-11.6119
0.3824	-11.6882
0.3825	-10.1166
0.3826	-11.0474
0.3827	-11.0626
0.3828	-11.2152
0.3829	-11.1694
0.383	-11.8256
0.3831	-10.8643
0.3832	-11.0016
0.3833	-11.261
0.3834	-11.5967
0.3835	-10.437
0.3836	-10.7574
0.3837	-11.9324
0.3838	-11.6577
0.3839	-10.437
0.384	-11.5814
0.3841	-10.4523
0.3842	-11.1847
0.3843	-11.1694
0.3844	-10.1929
0.3845	-11.0474
0.3846	-10.5896
0.3847	-10.7117
0.3848	-10.8185
0.3849	-8.30078
0.385	-10.6201
0.3851	-11.0931
0.3852	-11.4593
0.3853	-10.2234
0.3854	-11.8408
0.3855	-11.6577
0.3856	-10.5896
0.3857	-11.4136
0.3858	-11.3831
0.3859	-11.2305
0.386	-10.7269
0.3861	-12.0392
0.3862	-10.7269
0.3863	-10.1471
0.3864	-11.8866
0.3865	-11.1389
0.3866	-11.9019
0.3867	-11.6119
0.3868	-11.2152
0.3869	-11.3373
0.387	-11.4136
0.3871	-12.2986
0.3872	-11.9476
0.3873	-11.3831
0.3874	-10.2692
0.3875	-11.0321
0.3876	-6.53076
0.3877	-5.7373
0.3878	-4.95911
0.3879	-6.54602
0.388	-6.45447
0.3881	-5.37109
0.3882	-5.24902
0.3883	-5.98144
0.3884	-4.98962
0.3885	-5.00488
0.3886	-5.15747
0.3887	-4.97436
0.3888	-4.69971
0.3889	-5.27954
0.389	-4.57764
0.3891	-4.19617
0.3892	-5.41687
0.3893	-5.98144
0.3894	-4.91333
0.3895	-6.34766
0.3896	-5.12695
0.3897	-10.7727
0.3898	-11.9781
0.3899	-11.3678
0.39	-11.6119
0.3901	-12.6953
0.3902	-10.4523
0.3903	-11.3373
0.3904	-11.9171
0.3905	-10.1471
0.3906	-12.4054
0.3907	-12.7411
0.3908	-11.2915
0.3909	-10.5896
0.391	-11.0931
0.3911	-11.734
0.3912	-11.3831
0.3913	-11.5356
0.3914	-11.2915
0.3915	-10.437
0.3916	-10.4218
0.3917	-11.5967
0.3918	-10.5133
0.3919	-11.0168
0.392	-11.4288
0.3921	-10.2539
0.3922	-11.2
0.3923	-11.5356
0.3924	-11.4441
0.3925	-11.2762
0.3926	-9.91821
0.3927	-11.2762
0.3928	-11.2305
0.3929	-11.2152
0.393	-10.5286
0.3931	-11.5967
0.3932	-10.7574
0.3933	-11.795
0.3934	-11.5662
0.3935	-11.8256
0.3936	-11.4136
0.3937	-10.4675
0.3938	-11.6882
0.3939	-11.6272
0.394	-11.5051
0.3941	-11.0474
0.3942	-10.849
0.3943	-10.5133
0.3944	-11.0474
0.3945	-10.498
0.3946	-10.6049
0.3947	-12.0392
0.3948	-10.498
0.3949	-10.788
0.395	-11.5051
0.3951	-10.6049
0.3952	-10.5743
0.3953	-10.7574
0.3954	-12.0087
0.3955	-11.1542
0.3956	-10.4218
0.3957	-10.9558
0.3958	-11.4288
0.3959	-11.2152
0.396	-10.8948
0.3961	-12.4207
0.3962	-10.5133
0.3963	-11.322
0.3964	-11.7645
0.3965	-10.9406
0.3966	-10.4065
0.3967	-11.673
0.3968	-10.6659
0.3969	-12.0239
0.397	-10.5743
0.3971	-10.849
0.3972	-11.0168
0.3973	-12.3138
0.3974	-11.4899
0.3975	-10.5896
0.3976	-11.6577
0.3977	-11.5051
0.3978	-11.5204
0.3979	-10.2234
0.398	-11.0779
0.3981	-10.4523
0.3982	-11.7798
0.3983	-10.8032
0.3984	-11.2
0.3985	-11.261
0.3986	-10.5743
0.3987	-10.6812
0.3988	-11.5509
0.3989	-10.5591
0.399	-10.8948
0.3991	-11.7035
0.3992	-10.9558
0.3993	-11.5967
0.3994	-11.1542
0.3995	-11.0931
0.3996	-11.7187
0.3997	-11.2915
0.3998	-11.3525
0.3999	-11.8408
0.4	-11.322
0.4001	-11.8713
0.4002	-9.84192
0.4003	-11.8256
0.4004	-11.7493
0.4005	-12.2528
0.4006	-12.0544
0.4007	-11.9019
0.4008	-11.4593
0.4009	-12.0392
0.401	-11.2305
0.4011	-11.2457
0.4012	-12.3901
0.4013	-12.2375
0.4014	-10.3149
0.4015	-11.1694
0.4016	-11.2152
0.4017	-11.8561
0.4018	-11.261
0.4019	-10.8032
0.402	-12.8937
0.4021	-11.8866
0.4022	-11.0168
0.4023	-11.0321
0.4024	-11.5356
0.4025	-11.261
0.4026	-10.5743
0.4027	-10.849
0.4028	-11.0626
0.4029	-12.1613
0.403	-11.2305
0.4031	-11.1389
0.4032	-11.0168
0.4033	-11.9324
0.4034	-12.1155
0.4035	-11.1084
0.4036	-12.4054
0.4037	-11.3525
0.4038	-11.4593
0.4039	-13.1683
0.404	-10.2539
0.4041	-11.9019
0.4042	-11.0474
0.4043	-10.9406
0.4044	-11.3983
0.4045	-10.4828
0.4046	-12.2375
0.4047	-11.2762
0.4048	-8.0719
0.4049	-6.45447
0.405	-6.30188
0.4051	-7.79724
0.4052	-9.18579
0.4053	-11.9171
0.4054	-10.2692
0.4055	-10.6049
0.4056	-11.0474
0.4057	-11.3525
0.4058	-11.2305
0.4059	-11.1847
0.406	-10.3607
0.4061	-11.4288
0.4062	-10.3149
0.4063	-11.4593
0.4064	-10.6964
0.4065	-11.6119
0.4066	-10.5591
0.4067	-12.4817
0.4068	-11.4593
0.4069	-10.9711
0.407	-11.3678
0.4071	-9.90295
0.4072	-10.9406
0.4073	-10.0861
0.4074	-10.4675
0.4075	-7.04956
0.4076	-11.0779
0.4077	-10.7269
0.4078	-12.1918
0.4079	-10.6354
0.408	-11.4746
0.4081	-9.68933
0.4082	-11.8256
0.4083	-11.4441
0.4084	-11.0474
0.4085	-11.4593
0.4086	-12.085
0.4087	-9.8114
0.4088	-11.9171
0.4089	-10.5438
0.409	-12.085
0.4091	-11.5814
0.4092	-12.1613
0.4093	-10.5286
0.4094	-10.9558
0.4095	-12.3749
0.4096	-10.6354
0.4097	-11.7798
0.4098	-10.6201
0.4099	-10.5133
0.41	-11.2915
0.4101	-11.3525
0.4102	-10.7422
0.4103	-11.734
0.4104	-11.5814
0.4105	-11.4288
0.4106	-10.0555
0.4107	-10.6354
0.4108	-10.4065
0.4109	-11.6882
0.411	-11.2457
0.4111	-9.62829
0.4112	-10.5438
0.4113	-10.9406
0.4114	-10.91
0.4115	-10.7422
0.4116	-11.1389
0.4117	-10.4218
0.4118	-11.2762
0.4119	-11.0016
0.412	-10.3912
0.4121	-11.9476
0.4122	-11.3678
0.4123	-11.9781
0.4124	-9.87244
0.4125	-11.6577
0.4126	-11.1542
0.4127	-11.3525
0.4128	-10.91
0.4129	-10.9406
0.413	-11.5662
0.4131	-11.1694
0.4132	-10.376
0.4133	-10.6659
0.4134	-11.9019
0.4135	-11.5967
0.4136	-10.9558
0.4137	-9.93347
0.4138	-10.9711
0.4139	-11.8408
0.414	-10.6659
0.4141	-11.1389
0.4142	-10.6049
0.4143	-11.2762
0.4144	-11.6119
0.4145	-10.9558
0.4146	-10.4675
0.4147	-10.7574
0.4148	-11.3525
0.4149	-11.0931
0.415	-9.71985
0.4151	-10.1318
0.4152	-11.0474
0.4153	-11.4899
0.4154	-10.91
0.4155	-10.5591
0.4156	-11.3678
0.4157	-10.1013
0.4158	-10.1471
0.4159	-10.0708
0.416	-11.6577
0.4161	-10.849
0.4162	-11.1237
0.4163	-11.322
0.4164	-12.5275
0.4165	-11.261
0.4166	-11.7493
0.4167	-11.0168
0.4168	-12.0239
0.4169	-10.6201
0.417	-10.7269
0.4171	-11.5662
0.4172	-11.0626
0.4173	-11.3373
0.4174	-11.6577
0.4175	-11.2762
0.4176	-11.5509
0.4177	-12.207
0.4178	-10.3455
0.4179	-10.3912
0.418	-10.2692
0.4181	-11.4441
0.4182	-12.0697
0.4183	-11.5051
0.4184	-12.6953
0.4185	-10.3149
0.4186	-11.4899
0.4187	-11.5509
0.4188	-12.2528
0.4189	-12.0392
0.419	-10.8185
0.4191	-11.9934
0.4192	-11.2762
0.4193	-12.1002
0.4194	-10.8185
0.4195	-12.2528
0.4196	-11.5509
0.4197	-11.734
0.4198	-11.8561
0.4199	-11.261
0.42	-11.9781
0.4201	-10.7574
0.4202	-11.3068
0.4203	-12.1307
0.4204	-11.5509
0.4205	-11.7493
0.4206	-11.8713
0.4207	-11.3831
0.4208	-10.9863
0.4209	-11.7035
0.421	-11.3525
0.4211	-11.1694
0.4212	-11.9476
0.4213	-11.2762
0.4214	-11.3678
0.4215	-11.1694
0.4216	-11.1542
0.4217	-10.0098
0.4218	-11.0931
0.4219	-11.3831
0.422	-12.2223
0.4221	-11.3831
0.4222	-10.8948
0.4223	-10.9711
0.4224	-12.1002
0.4225	-11.4136
0.4226	-10.2539
0.4227	-10.7727
0.4228	-11.0168
0.4229	-11.2915
0.423	-11.1084
0.4231	-10.5896
0.4232	-11.5814
0.4233	-11.4899
0.4234	-10.5438
0.4235	-11.1237
0.4236	-10.5896
0.4237	-10.9558
0.4238	-11.9019
0.4239	-9.46045
0.424	-10.2386
0.4241	-10.2386
0.4242	-11.673
0.4243	-12.6648
0.4244	-10.9253
0.4245	-11.2762
0.4246	-11.3831
0.4247	-11.1542
0.4248	-11.9324
0.4249	-9.97925
0.425	-11.7493
0.4251	-10.8948
0.4252	-11.3373
0.4253	-11.0168
0.4254	-12.97
0.4255	-11.261
0.4256	-11.1542
0.4257	-10.6812
0.4258	-11.7035
0.4259	-12.3901
0.426	-11.5356
0.4261	-11.5967
0.4262	-10.437
0.4263	-10.5591
0.4264	-11.4593
0.4265	-12.4207
0.4266	-11.673
0.4267	-11.0779
0.4268	-10.9863
0.4269	-12.0239
0.427	-10.3607
0.4271	-12.3291
0.4272	-11.0168
0.4273	-10.9406
0.4274	-11.5662
0.4275	-10.5133
0.4276	-10.3912
0.4277	-10.4675
0.4278	-11.6882
0.4279	-11.8713
0.428	-11.8713
0.4281	-11.7798
0.4282	-11.9171
0.4283	-10.6812
0.4284	-12.558
0.4285	-11.1847
0.4286	-11.2305
0.4287	-12.4512
0.4288	-11.322
0.4289	-10.498
0.429	-11.4441
0.4291	-11.0931
0.4292	-11.6119
0.4293	-10.7422
0.4294	-11.3678
0.4295	-11.9324
0.4296	-11.1389
0.4297	-11.5204
0.4298	-10.6201
0.4299	-11.0321
0.43	-11.4593
0.4301	-10.3912
0.4302	-11.673
0.4303	-11.3983
0.4304	-11.9629
0.4305	-11.5814
0.4306	-10.8795
0.4307	-11.795
0.4308	-10.6506
0.4309	-10.6659
0.431	-11.4288
0.4311	-11.2152
0.4312	-11.3373
0.4313	-10.6354
0.4314	-11.1389
0.4315	-11.4136
0.4316	-10.0403
0.4317	-12.0239
0.4318	-11.1542
0.4319	-9.78088
0.432	-11.7645
0.4321	-10.788
0.4322	-11.3678
0.4323	-11.0474
0.4324	-9.39941
0.4325	-11.9476
0.4326	-11.6425
0.4327	-10.6201
0.4328	-11.4441
0.4329	-11.2762
0.433	-11.9476
0.4331	-11.3373
0.4332	-8.10242
0.4333	-11.3068
0.4334	-11.5662
0.4335	-11.7645
0.4336	-11.7187
0.4337	-11.4136
0.4338	-12.5122
0.4339	-11.5967
0.434	-12.619
0.4341	-11.5662
0.4342	-11.3831
0.4343	-11.4288
0.4344	-12.7563
0.4345	-12.0544
0.4346	-10.5438
0.4347	-12.4359
0.4348	-9.93347
0.4349	-11.0626
0.435	-11.2
0.4351	-10.9711
0.4352	-11.4899
0.4353	-10.8643
0.4354	-11.3983
0.4355	-10.2234
0.4356	-11.8256
0.4357	-10.6812
0.4358	-11.8866
0.4359	-10.3302
0.436	-8.3313
0.4361	-11.0626
0.4362	-11.2305
0.4363	-10.6506
0.4364	-9.44519
0.4365	-11.7035
0.4366	-10.9711
0.4367	-10.6964
0.4368	-11.673
0.4369	-9.58252
0.437	-8.04138
0.4371	-10.1013
0.4372	-11.3983
0.4373	-11.2457
0.4374	-10.7727
0.4375	-12.6953
0.4376	-11.5051
0.4377	-10.7422
0.4378	-11.1847
0.4379	-11.2915
0.438	-11.0626
0.4381	-12.3291
0.4382	-10.6964
0.4383	-11.2152
0.4384	-11.0016
0.4385	-11.8408
0.4386	-11.2152
0.4387	-12.0392
0.4388	-11.1542
0.4389	-11.4441
0.439	-12.0697
0.4391	-11.5662
0.4392	-11.3373
0.4393	-11.8713
0.4394	-11.7798
0.4395	-11.3678
0.4396	-12.4664
0.4397	-11.3678
0.4398	-12.2833
0.4399	-10.1318
0.44	-11.1389
0.4401	-11.3068
0.4402	-9.35364
0.4403	-6.34766
0.4404	-4.89807
0.4405	-5.21851
0.4406	-5.78308
0.4407	-4.31824
0.4408	-9.71985
0.4409	-11.6882
0.441	-12.1613
0.4411	-11.3373
0.4412	-10.6049
0.4413	-11.1694
0.4414	-11.4441
0.4415	-11.4136
0.4416	-9.30786
0.4417	-11.2
0.4418	-10.9406
0.4419	-10.8795
0.442	-11.7798
0.4421	-12.0697
0.4422	-9.85718
0.4423	-11.6577
0.4424	-11.1694
0.4425	-10.8185
0.4426	-11.1694
0.4427	-11.1389
0.4428	-10.9558
0.4429	-11.8103
0.443	-10.8337
0.4431	-11.0168
0.4432	-10.6354
0.4433	-10.7574
0.4434	-11.4288
0.4435	-10.4675
0.4436	-11.8408
0.4437	-10.3302
0.4438	-11.0474
0.4439	-11.1084
0.444	-12.3749
0.4441	-11.6119
0.4442	-10.849
0.4443	-11.1847
0.4444	-11.7798
0.4445	-11.1542
0.4446	-10.9253
0.4447	-10.437
0.4448	-11.0016
0.4449	-11.8561
0.445	-11.7493
0.4451	-11.0626
0.4452	-12.0697
0.4453	-11.3068
0.4454	-10.9558
0.4455	-10.9253
0.4456	-11.4746
0.4457	-11.4288
0.4458	-7.96509
0.4459	-10.6049
0.446	-11.0626
0.4461	-10.2081
0.4462	-11.2
0.4463	-11.5509
0.4464	-11.2305
0.4465	-9.52148
0.4466	-11.5814
0.4467	-11.6425
0.4468	-10.9406
0.4469	-6.46973
0.447	-11.2762
0.4471	-12.5275
0.4472	-10.4065
0.4473	-10.1624
0.4474	-11.3525
0.4475	-11.8256
0.4476	-11.9934
0.4477	-11.322
0.4478	-10.9406
0.4479	-10.8032
0.448	-11.6272
0.4481	-11.0321
0.4482	-10.2081
0.4483	-12.3138
0.4484	-10.3912
0.4485	-9.93347
0.4486	-11.6272
0.4487	-11.0779
0.4488	-11.9934
0.4489	-10.849
0.449	-11.2762
0.4491	-11.0474
0.4492	-11.4593
0.4493	-11.3068
0.4494	-11.3525
0.4495	-10.1624
0.4496	-11.0626
0.4497	-11.5509
0.4498	-11.5051
0.4499	-11.6272
0.45	-11.6272
0.4501	-12.0087
0.4502	-11.261
0.4503	-11.1542
0.4504	-12.3901
0.4505	-10.9863
0.4506	-9.87244
0.4507	-11.5051
0.4508	-10.3302
0.4509	-10.3912
0.451	-12.1918
0.4511	-11.3678
0.4512	-7.69043
0.4513	-4.83704
0.4514	-5.53894
0.4515	-5.58472
0.4516	-6.01196
0.4517	-5.41687
0.4518	-5.82886
0.4519	-6.3324
0.452	-10.849
0.4521	-10.6506
0.4522	-11.2
0.4523	-12.7258
0.4524	-11.8713
0.4525	-9.49097
0.4526	-11.8561
0.4527	-10.0861
0.4528	-11.9171
0.4529	-9.87244
0.453	-10.7727
0.4531	-10.9558
0.4532	-11.9476
0.4533	-11.9934
0.4534	-11.5051
0.4535	-11.322
0.4536	-10.5133
0.4537	-11.2762
0.4538	-11.4899
0.4539	-10.498
0.454	-10.7269
0.4541	-12.2375
0.4542	-11.8256
0.4543	-10.3455
0.4544	-11.1542
0.4545	-11.0626
0.4546	-10.8643
0.4547	-11.3068
0.4548	-11.3068
0.4549	-12.1918
0.455	-10.5591
0.4551	-11.8408
0.4552	-10.6964
0.4553	-12.3138
0.4554	-10.5133
0.4555	-10.8032
0.4556	-11.8866
0.4557	-10.8337
0.4558	-11.9781
0.4559	-10.2386
0.456	-11.3068
0.4561	-12.5122
0.4562	-10.2844
0.4563	-11.734
0.4564	-11.0168
0.4565	-10.8795
0.4566	-12.4207
0.4567	-11.6272
0.4568	-10.4523
0.4569	-11.4899
0.457	-11.1389
0.4571	-11.5051
0.4572	-11.3678
0.4573	-10.849
0.4574	-9.552
0.4575	-11.7035
0.4576	-11.2762
0.4577	-10.4065
0.4578	-11.2762
0.4579	-11.8561
0.458	-11.3983
0.4581	-11.2762
0.4582	-11.8713
0.4583	-10.6201
0.4584	-11.6882
0.4585	-11.1237
0.4586	-11.4441
0.4587	-11.4593
0.4588	-9.84192
0.4589	-11.9019
0.459	-10.3912
0.4591	-12.1307
0.4592	-11.5204
0.4593	-11.3373
0.4594	-11.6577
0.4595	-12.2375
0.4596	-11.5509
0.4597	-12.1307
0.4598	-11.261
0.4599	-10.1318
0.46	-11.5356
0.4601	-11.9019
0.4602	-11.3068
0.4603	-11.7645
0.4604	-11.322
0.4605	-9.91821
0.4606	-10.3607
0.4607	-11.2457
0.4608	-12.0239
0.4609	-11.3068
0.461	-11.4441
0.4611	-10.7117
0.4612	-11.5509
0.4613	-11.2915
0.4614	-9.52148
0.4615	-9.61304
0.4616	-10.2692
0.4617	-8.88061
0.4618	-10.5743
0.4619	-11.8561
0.462	-10.4828
0.4621	-10.9863
0.4622	-10.3149
0.4623	-12.0697
0.4624	-11.9019
0.4625	-10.5438
0.4626	-11.8713
0.4627	-10.2997
0.4628	-11.5509
0.4629	-11.2915
0.463	-11.1084
0.4631	-5.76782
0.4632	-10.6964
0.4633	-11.3525
0.4634	-10.2234
0.4635	-11.3678
0.4636	-11.734
0.4637	-11.2305
0.4638	-11.7035
0.4639	-11.2915
0.464	-10.8185
0.4641	-11.3983
0.4642	-9.87244
0.4643	-11.5204
0.4644	-10.6812
0.4645	-10.6049
0.4646	-11.2762
0.4647	-10.1776
0.4648	-10.5133
0.4649	-10.0555
0.465	-11.0168
0.4651	-10.8948
0.4652	-11.3983
0.4653	-10.91
0.4654	-10.9406
0.4655	-9.79614
0.4656	-10.7727
0.4657	-10.8795
0.4658	-11.5509
0.4659	-12.2833
0.466	-10.4828
0.4661	-10.6812
0.4662	-7.30896
0.4663	-5.35583
0.4664	-9.59778
0.4665	-10.5591
0.4666	-10.2234
0.4667	-11.795
0.4668	-10.9863
0.4669	-11.5967
0.467	-10.437
0.4671	-10.6354
0.4672	-10.0403
0.4673	-11.2305
0.4674	-11.8103
0.4675	-11.1542
0.4676	-10.9558
0.4677	-12.619
0.4678	-11.0931
0.4679	-10.849
0.468	-12.0544
0.4681	-11.1847
0.4682	-11.7187
0.4683	-11.5204
0.4684	-10.3455
0.4685	-11.3068
0.4686	-11.2457
0.4687	-11.4746
0.4688	-10.2844
0.4689	-11.7645
0.469	-11.4899
0.4691	-11.4899
0.4692	-10.91
0.4693	-10.9558
0.4694	-11.7798
0.4695	-11.0168
0.4696	-11.5051
0.4697	-11.0168
0.4698	-10.1471
0.4699	-11.5967
0.47	-11.9934
0.4701	-6.16455
0.4702	-5.34058
0.4703	-9.61304
0.4704	-11.3678
0.4705	-10.1471
0.4706	-10.8643
0.4707	-11.6425
0.4708	-10.8032
0.4709	-11.673
0.471	-10.498
0.4711	-11.0626
0.4712	-11.795
0.4713	-11.3373
0.4714	-11.734
0.4715	-9.59778
0.4716	-10.8795
0.4717	-10.5438
0.4718	-11.3525
0.4719	-11.4899
0.472	-9.27734
0.4721	-10.9863
0.4722	-11.322
0.4723	-11.6119
0.4724	-11.7798
0.4725	-11.5814
0.4726	-10.8795
0.4727	-11.7493
0.4728	-10.6506
0.4729	-11.1694
0.473	-11.3831
0.4731	-10.9863
0.4732	-12.0239
0.4733	-11.3678
0.4734	-10.5743
0.4735	-10.5438
0.4736	-12.3291
0.4737	-10.9558
0.4738	-11.322
0.4739	-11.795
0.474	-10.6049
0.4741	-9.87244
0.4742	-10.5591
0.4743	-11.734
0.4744	-10.8948
0.4745	-12.2223
0.4746	-10.4065
0.4747	-10.437
0.4748	-11.0626
0.4749	-9.99451
0.475	-11.6425
0.4751	-10.7727
0.4752	-10.8185
0.4753	-10.9406
0.4754	-9.71985
0.4755	-11.0168
0.4756	-11.7798
0.4757	-11.5356
0.4758	-11.7798
0.4759	-11.5356
0.476	-10.6964
0.4761	-11.8561
0.4762	-9.84192
0.4763	-11.8256
0.4764	-11.5051
0.4765	-11.2915
0.4766	-11.3525
0.4767	-12.7258
0.4768	-12.3291
0.4769	-11.1694
0.477	-10.8185
0.4771	-11.4288
0.4772	-9.01794
0.4773	-9.82666
0.4774	-9.32312
0.4775	-9.50622
0.4776	-9.35364
0.4777	-10.2997
0.4778	-11.3525
0.4779	-9.01794
0.478	-11.9629
0.4781	-10.6964
0.4782	-11.7035
0.4783	-11.3068
0.4784	-10.9863
0.4785	-10.4828
0.4786	-11.5509
0.4787	-11.3373
0.4788	-9.85718
0.4789	-10.9558
0.479	-11.1542
0.4791	-11.3983
0.4792	-11.5814
0.4793	-11.3831
0.4794	-11.795
0.4795	-11.2305
0.4796	-10.6506
0.4797	-11.7035
0.4798	-11.7645
0.4799	-11.2915
0.48	-10.788
0.4801	-12.0087
0.4802	-11.673
0.4803	-11.0931
0.4804	-10.8948
0.4805	-11.5051
0.4806	-12.1002
0.4807	-11.0016
0.4808	-11.0474
0.4809	-11.5051
0.481	-11.6272
0.4811	-10.7574
0.4812	-10.5286
0.4813	-10.849
0.4814	-11.1542
0.4815	-11.1084
0.4816	-11.2152
0.4817	-10.7422
0.4818	-10.1929
0.4819	-11.6882
0.482	-11.3068
0.4821	-10.0708
0.4822	-10.5591
0.4823	-10.1624
0.4824	-10.1929
0.4825	-12.9089
0.4826	-11.1847
0.4827	-11.4288
0.4828	-11.7493
0.4829	-11.322
0.483	-11.0626
0.4831	-12.8784
0.4832	-11.3831
0.4833	-11.0779
0.4834	-12.0392
0.4835	-12.0087
0.4836	-11.2457
0.4837	-10.437
0.4838	-10.6659
0.4839	-11.3678
0.484	-11.0016
0.4841	-10.8032
0.4842	-10.91
0.4843	-11.795
0.4844	-11.4288
0.4845	-10.7574
0.4846	-10.025
0.4847	-11.5051
0.4848	-11.8103
0.4849	-11.2457
0.485	-11.5356
0.4851	-11.8713
0.4852	-10.0403
0.4853	-11.9171
0.4854	-10.2081
0.4855	-10.3149
0.4856	-11.5662
0.4857	-10.376
0.4858	-11.5662
0.4859	-9.76562
0.486	-10.9406
0.4861	-10.8185
0.4862	-10.2844
0.4863	-11.4746
0.4864	-10.788
0.4865	-12.1002
0.4866	-10.4828
0.4867	-10.2692
0.4868	-11.5967
0.4869	-10.9711
0.487	-10.91
0.4871	-11.5509
0.4872	-11.1237
0.4873	-12.4512
0.4874	-10.6812
0.4875	-11.1694
0.4876	-11.5967
0.4877	-12.4512
0.4878	-11.9019
0.4879	-12.4664
0.488	-11.9476
0.4881	-10.788
0.4882	-11.3068
0.4883	-11.0626
0.4884	-12.8937
0.4885	-11.0931
0.4886	-11.7645
0.4887	-9.71985
0.4888	-11.1847
0.4889	-10.9558
0.489	-11.5509
0.4891	-10.7574
0.4892	-11.8561
0.4893	-11.734
0.4894	-11.3525
0.4895	-12.146
0.4896	-10.8948
0.4897	-10.7269
0.4898	-12.3749
0.4899	-11.0931
0.49	-11.0474
0.4901	-11.4746
0.4902	-10.6812
0.4903	-10.5743
0.4904	-11.4593
0.4905	-11.3068
0.4906	-11.5662
0.4907	-10.1166
0.4908	-12.2223
0.4909	-11.5204
0.491	-11.8561
0.4911	-10.8185
0.4912	-11.2
0.4913	-11.1542
0.4914	-10.498
0.4915	-11.2457
0.4916	-11.673
0.4917	-10.2081
0.4918	-10.437
0.4919	-11.2
0.492	-10.2539
0.4921	-10.3149
0.4922	-10.8337
0.4923	-10.5896
0.4924	-11.0321
0.4925	-11.9781
0.4926	-10.6201
0.4927	-11.795
0.4928	-11.7493
0.4929	-10.7574
0.493	-11.4593
0.4931	-7.52258
0.4932	-11.4136
0.4933	-11.6882
0.4934	-10.7117
0.4935	-10.7727
0.4936	-10.8337
0.4937	-8.36182
0.4938	-11.5814
0.4939	-11.7035
0.494	-11.3831
0.4941	-11.4746
0.4942	-11.8561
0.4943	-10.8337
0.4944	-12.2375
0.4945	-11.8866
0.4946	-11.3983
0.4947	-10.9558
0.4948	-12.2223
0.4949	-10.6201
0.495	-11.8408
0.4951	-10.5133
0.4952	-11.0779
0.4953	-9.73511
0.4954	-11.673
0.4955	-10.2844
0.4956	-10.8948
0.4957	-11.4746
0.4958	-10.4218
0.4959	-9.97925
0.496	-7.04956
0.4961	-12.2681
0.4962	-10.4065
0.4963	-10.2539
0.4964	-10.9711
0.4965	-11.7798
0.4966	-11.7645
0.4967	-10.2997
0.4968	-11.795
0.4969	-11.4899
0.497	-12.4054
0.4971	-10.6506
0.4972	-12.5275
0.4973	-10.1624
0.4974	-11.3525
0.4975	-9.68933
0.4976	-9.78088
0.4977	-11.3525
0.4978	-11.9629
0.4979	-11.6425
0.498	-11.2457
0.4981	-11.8256
0.4982	-11.322
0.4983	-11.8408
0.4984	-11.2762
0.4985	-10.9406
0.4986	-10.498
0.4987	-11.4288
0.4988	-11.2152
0.4989	-10.5438
0.499	-10.7574
0.4991	-10.4218
0.4992	-11.2305
0.4993	-11.0016
0.4994	-11.8713
0.4995	-11.8866
0.4996	-10.3149
0.4997	-10.2997
0.4998	-10.9863
0.4999	-11.795
0.5	-11.7493
0.5001	-11.2915
0.5002	-11.8256
0.5003	-11.7035
0.5004	-11.0321
0.5005	-9.99451
0.5006	-11.5662
0.5007	-10.4523
0.5008	-11.1694
0.5009	-12.4817
0.501	-12.3138
0.5011	-10.6659
0.5012	-12.7258
0.5013	-6.69861
0.5014	-11.0474
0.5015	-10.6659
0.5016	-11.2762
0.5017	-11.0779
0.5018	-11.2152
0.5019	-11.3678
0.502	-10.3149
0.5021	-12.1002
0.5022	-11.2762
0.5023	-11.4746
0.5024	-10.9711
0.5025	-12.2833
0.5026	-10.9711
0.5027	-11.1694
0.5028	-11.322
0.5029	-11.2762
0.503	-11.3373
0.5031	-10.8795
0.5032	-10.7727
0.5033	-9.76562
0.5034	-12.0697
0.5035	-11.0779
0.5036	-6.24084
0.5037	-4.62341
0.5038	-5.50842
0.5039	-10.0555
0.504	-11.5051
0.5041	-11.6882
0.5042	-9.91821
0.5043	-11.0321
0.5044	-11.4899
0.5045	-12.207
0.5046	-10.5438
0.5047	-10.6659
0.5048	-10.9406
0.5049	-10.376
0.505	-12.3596
0.5051	-9.17053
0.5052	-10.5438
0.5053	-12.4512
0.5054	-10.849
0.5055	-12.0544
0.5056	-10.1013
0.5057	-10.6659
0.5058	-11.322
0.5059	-11.8408
0.506	-9.84192
0.5061	-11.5814
0.5062	-11.6119
0.5063	-11.9781
0.5064	-11.1847
0.5065	-11.5204
0.5066	-11.5814
0.5067	-11.6882
0.5068	-11.4593
0.5069	-12.2681
0.507	-11.734
0.5071	-11.5814
0.5072	-10.0708
0.5073	-10.3455
0.5074	-12.5275
0.5075	-11.4136
0.5076	-11.2305
0.5077	-12.0544
0.5078	-11.2152
0.5079	-12.1155
0.508	-11.734
0.5081	-12.0239
0.5082	-10.9406
0.5083	-10.6049
0.5084	-12.207
0.5085	-12.3749
0.5086	-11.1542
0.5087	-11.4593
0.5088	-11.9476
0.5089	-10.2539
0.509	-13.1531
0.5091	-11.3068
0.5092	-11.9934
0.5093	-11.0016
0.5094	-9.64355
0.5095	-9.84192
0.5096	-11.4288
0.5097	-11.4593
0.5098	-8.37707
0.5099	-8.5144
0.51	-11.5204
0.5101	-10.6354
0.5102	-12.2681
0.5103	-10.3607
0.5104	-11.673
0.5105	-11.5814
0.5106	-11.7493
0.5107	-12.2681
0.5108	-12.3749
0.5109	-12.3444
0.511	-11.2915
0.5111	-12.5427
0.5112	-11.8866
0.5113	-10.5286
0.5114	-10.7727
0.5115	-12.9395
0.5116	-11.9019
0.5117	-10.5286
0.5118	-12.0239
0.5119	-11.4746
0.512	-10.7269
0.5121	-11.8103
0.5122	-11.4899
0.5123	-11.3678
0.5124	-11.1847
0.5125	-11.2457
0.5126	-11.5356
0.5127	-11.4288
0.5128	-11.8103
0.5129	-12.3291
0.513	-10.6201
0.5131	-11.0168
0.5132	-12.1002
0.5133	-12.2833
0.5134	-11.795
0.5135	-11.2
0.5136	-10.8185
0.5137	-11.4899
0.5138	-10.8795
0.5139	-10.5133
0.514	-10.4828
0.5141	-11.6119
0.5142	-12.5275
0.5143	-11.6882
0.5144	-10.788
0.5145	-9.18579
0.5146	-12.0544
0.5147	-11.7035
0.5148	-9.97925
0.5149	-10.4675
0.515	-10.8948
0.5151	-10.9711
0.5152	-11.4441
0.5153	-11.1847
0.5154	-11.2
0.5155	-11.5051
0.5156	-10.849
0.5157	-11.5509
0.5158	-11.2
0.5159	-8.91113
0.516	-10.8643
0.5161	-12.1307
0.5162	-11.3678
0.5163	-11.3525
0.5164	-13.092
0.5165	-11.673
0.5166	-11.322
0.5167	-11.7493
0.5168	-12.1002
0.5169	-11.3831
0.517	-11.8561
0.5171	-11.6882
0.5172	-10.025
0.5173	-11.4746
0.5174	-10.6659
0.5175	-12.0239
0.5176	-11.9934
0.5177	-10.5286
0.5178	-9.94873
0.5179	-10.8795
0.518	-10.5286
0.5181	-11.3068
0.5182	-12.3749
0.5183	-11.2457
0.5184	-11.2
0.5185	-11.9476
0.5186	-10.3607
0.5187	-12.146
0.5188	-11.7035
0.5189	-10.6506
0.519	-10.4065
0.5191	-11.4899
0.5192	-11.6119
0.5193	-10.4828
0.5194	-10.4065
0.5195	-10.849
0.5196	-10.6506
0.5197	-10.849
0.5198	-11.0779
0.5199	-10.2692
0.52	-11.7035
0.5201	-12.4817
0.5202	-10.8337
0.5203	-11.0321
0.5204	-11.2152
0.5205	-12.1002
0.5206	-11.2
0.5207	-12.1155
0.5208	-11.1694
0.5209	-11.3678
0.521	-12.146
0.5211	-11.1237
0.5212	-11.2
0.5213	-9.99451
0.5214	-10.4523
0.5215	-10.2692
0.5216	-9.71985
0.5217	-7.06482
0.5218	-8.92639
0.5219	-11.8713
0.522	-10.6964
0.5221	-11.3831
0.5222	-12.0392
0.5223	-11.3525
0.5224	-11.7187
0.5225	-12.0087
0.5226	-11.3525
0.5227	-9.38415
0.5228	-12.1918
0.5229	-11.1389
0.523	-11.3678
0.5231	-11.0931
0.5232	-11.4288
0.5233	-10.7269
0.5234	-11.5204
0.5235	-10.3455
0.5236	-11.3983
0.5237	-10.91
0.5238	-7.38525
0.5239	-10.6354
0.524	-11.6425
0.5241	-10.3912
0.5242	-10.6812
0.5243	-10.2692
0.5244	-9.84192
0.5245	-10.6506
0.5246	-9.96399
0.5247	-11.4441
0.5248	-11.3373
0.5249	-10.6812
0.525	-12.146
0.5251	-11.2762
0.5252	-12.8326
0.5253	-10.6659
0.5254	-11.9171
0.5255	-12.5732
0.5256	-12.1155
0.5257	-10.4218
0.5258	-10.8337
0.5259	-11.9171
0.526	-11.8713
0.5261	-11.5356
0.5262	-11.6577
0.5263	-11.5967
0.5264	-11.8408
0.5265	-10.6659
0.5266	-10.0861
0.5267	-12.1918
0.5268	-10.91
0.5269	-11.673
0.527	-11.795
0.5271	-11.5051
0.5272	-11.9934
0.5273	-10.9253
0.5274	-9.70459
0.5275	-11.3831
0.5276	-11.7798
0.5277	-10.7269
0.5278	-10.4218
0.5279	-12.9852
0.528	-11.6882
0.5281	-10.788
0.5282	-11.4441
0.5283	-11.1389
0.5284	-12.6343
0.5285	-10.4218
0.5286	-11.6882
0.5287	-11.5967
0.5288	-11.1237
0.5289	-11.5204
0.529	-10.1624
0.5291	-10.6354
0.5292	-9.62829
0.5293	-10.5743
0.5294	-10.849
0.5295	-12.0544
0.5296	-10.7574
0.5297	-11.4593
0.5298	-11.2
0.5299	-10.8337
0.53	-10.6201
0.5301	-11.3831
0.5302	-11.322
0.5303	-11.7187
0.5304	-11.5204
0.5305	-12.1613
0.5306	-11.0168
0.5307	-10.91
0.5308	-11.5051
0.5309	-9.93347
0.531	-5.46265
0.5311	-4.86755
0.5312	-5.52368
0.5313	-6.16455
0.5314	-5.64575
0.5315	-5.95093
0.5316	-10.5591
0.5317	-11.2915
0.5318	-12.1613
0.5319	-10.5591
0.532	-11.5662
0.5321	-11.3068
0.5322	-11.2762
0.5323	-12.1002
0.5324	-11.0016
0.5325	-11.5814
0.5326	-11.6119
0.5327	-12.1918
0.5328	-11.1389
0.5329	-10.5438
0.533	-12.1307
0.5331	-10.8185
0.5332	-10.7269
0.5333	-11.5356
0.5334	-11.7035
0.5335	-10.788
0.5336	-10.437
0.5337	-9.27734
0.5338	-10.5896
0.5339	-11.7187
0.534	-12.4054
0.5341	-10.4065
0.5342	-11.1389
0.5343	-11.1237
0.5344	-11.0626
0.5345	-12.2986
0.5346	-11.8866
0.5347	-10.3302
0.5348	-11.261
0.5349	-12.3444
0.535	-10.7727
0.5351	-10.91
0.5352	-12.2986
0.5353	-12.5275
0.5354	-11.1694
0.5355	-11.8103
0.5356	-11.8561
0.5357	-12.2681
0.5358	-10.6049
0.5359	-11.2762
0.536	-11.5204
0.5361	-11.3525
0.5362	-10.5286
0.5363	-10.2234
0.5364	-12.4817
0.5365	-11.4288
0.5366	-11.6882
0.5367	-12.2223
0.5368	-10.7422
0.5369	-11.795
0.537	-11.7645
0.5371	-11.0474
0.5372	-10.8032
0.5373	-12.0239
0.5374	-10.3912
0.5375	-12.0087
0.5376	-11.8713
0.5377	-11.9324
0.5378	-10.9863
0.5379	-11.7187
0.538	-11.734
0.5381	-11.4593
0.5382	-11.0931
0.5383	-12.4512
0.5384	-10.8643
0.5385	-12.2833
0.5386	-10.9253
0.5387	-10.6659
0.5388	-11.6119
0.5389	-12.2833
0.539	-11.5356
0.5391	-10.7422
0.5392	-11.8713
0.5393	-11.4593
0.5394	-12.0239
0.5395	-11.4288
0.5396	-12.5732
0.5397	-11.8103
0.5398	-11.2152
0.5399	-11.3678
0.54	-10.025
0.5401	-10.9406
0.5402	-10.6812
0.5403	-11.9019
0.5404	-12.8479
0.5405	-11.3525
0.5406	-11.4136
0.5407	-11.1847
0.5408	-10.9558
0.5409	-11.9324
0.541	-10.7269
0.5411	-10.6354
0.5412	-10.8337
0.5413	-11.4441
0.5414	-10.9711
0.5415	-11.4288
0.5416	-11.0779
0.5417	-10.5896
0.5418	-11.261
0.5419	-11.2457
0.542	-10.4065
0.5421	-11.9934
0.5422	-11.1084
0.5423	-11.673
0.5424	-10.9558
0.5425	-11.3068
0.5426	-11.0016
0.5427	-10.3302
0.5428	-12.1918
0.5429	-10.2997
0.543	-10.7422
0.5431	-11.3831
0.5432	-11.2762
0.5433	-10.4065
0.5434	-11.322
0.5435	-10.91
0.5436	-10.2234
0.5437	-11.0321
0.5438	-11.5509
0.5439	-12.1765
0.544	-11.0168
0.5441	-10.437
0.5442	-11.2152
0.5443	-10.376
0.5444	-11.9781
0.5445	-11.6577
0.5446	-11.3068
0.5447	-11.1389
0.5448	-11.9324
0.5449	-10.4523
0.545	-11.5204
0.5451	-11.5204
0.5452	-11.9629
0.5453	-10.4523
0.5454	-10.6354
0.5455	-10.9863
0.5456	-10.8948
0.5457	-10.788
0.5458	-10.849
0.5459	-10.8948
0.546	-12.5122
0.5461	-11.8866
0.5462	-11.1389
0.5463	-10.2997
0.5464	-11.6882
0.5465	-10.1013
0.5466	-12.1918
0.5467	-10.498
0.5468	-11.3525
0.5469	-11.5662
0.547	-10.3912
0.5471	-11.6425
0.5472	-11.8866
0.5473	-12.0087
0.5474	-10.4065
0.5475	-11.0474
0.5476	-11.6577
0.5477	-10.6354
0.5478	-5.90515
0.5479	-6.01196
0.548	-4.74548
0.5481	-5.49316
0.5482	-5.75256
0.5483	-6.34766
0.5484	-9.35364
0.5485	-7.15637
0.5486	-5.49316
0.5487	-5.88989
0.5488	-5.64575
0.5489	-5.59998
0.549	-6.08826
0.5491	-5.75256
0.5492	-6.16455
0.5493	-7.58362
0.5494	-6.7749
0.5495	-4.27246
0.5496	-4.94385
0.5497	-6.05774
0.5498	-6.62231
0.5499	-5.53894
0.55	-5.88989
0.5501	-3.86047
0.5502	-9.91821
0.5503	-5.34058
0.5504	-5.70679
0.5505	-6.19507
0.5506	-6.22559
0.5507	-5.0354
0.5508	-6.72913
0.5509	-4.48608
0.551	-6.60706
0.5511	-5.35583
0.5512	-5.02014
0.5513	-4.31824
0.5514	-5.34058
0.5515	-9.87244
0.5516	-5.66101
0.5517	-5.32532
0.5518	-4.65393
0.5519	-7.09534
0.552	-10.9863
0.5521	-9.90295
0.5522	-11.4593
0.5523	-9.0332
0.5524	-8.62121
0.5525	-7.15637
0.5526	-4.71497
0.5527	-8.30078
0.5528	-4.5929
0.5529	-7.78198
0.553	-5.88989
0.5531	-4.82178
0.5532	-6.40869
0.5533	-5.78308
0.5534	-4.69971
0.5535	-5.79834
0.5536	-5.9967
0.5537	-5.23376
0.5538	-7.26318
0.5539	-5.50842
0.554	-5.38635
0.5541	-7.44629
0.5542	-6.83594
0.5543	-6.08826
0.5544	-5.20325
0.5545	-5.78308
0.5546	-5.67627
0.5547	-5.4779
0.5548	-5.27954
0.5549	-6.02722
0.555	-7.23267
0.5551	-6.13403
0.5552	-4.94385
0.5553	-6.11877
0.5554	-5.88989
0.5555	-5.49316
0.5556	-4.71497
0.5557	-5.15747
0.5558	-6.83594
0.5559	-5.44739
0.556	-5.11169
0.5561	-5.9967
0.5562	-5.9967
0.5563	-5.59998
0.5564	-9.56726
0.5565	-5.31006
0.5566	-6.24084
0.5567	-6.28662
0.5568	-5.9967
0.5569	-6.05774
0.557	-6.42395
0.5571	-5.92041
0.5572	-5.08118
0.5573	-6.28662
0.5574	-5.67627
0.5575	-5.53894
0.5576	-6.2561
0.5577	-5.75256
0.5578	-5.88989
0.5579	-6.2561
0.558	-7.20215
0.5581	-6.13403
0.5582	-6.75964
0.5583	-6.17981
0.5584	-7.06482
0.5585	-6.92749
0.5586	-6.57654
0.5587	-5.87463
0.5588	-6.30188
0.5589	-6.48498
0.559	-5.84412
0.5591	-6.19507
0.5592	-8.20923
0.5593	-6.80542
0.5594	-6.40869
0.5595	-6.28662
0.5596	-6.17981
0.5597	-6.30188
0.5598	-5.4779
0.5599	-5.76782
0.56	-6.60706
0.5601	-5.37109
0.5602	-7.49206
0.5603	-6.88171
0.5604	-6.92749
0.5605	-6.8512
0.5606	-5.96619
0.5607	-7.36999
0.5608	-6.46973
0.5609	-6.53076
0.561	-6.83594
0.5611	-6.04248
0.5612	-3.95203
0.5613	-6.37817
0.5614	-5.09644
0.5615	-5.21851
0.5616	-5.14221
0.5617	-5.44739
0.5618	-4.42505
0.5619	-6.80542
0.562	-5.56946
0.5621	-5.52368
0.5622	-4.47082
0.5623	-4.31824
0.5624	-4.74548
0.5625	-5.52368
0.5626	-5.14221
0.5627	-5.78308
0.5628	-6.88171
0.5629	-6.073
0.563	-5.2948
0.5631	-7.0343
0.5632	-6.2561
0.5633	-5.41687
0.5634	-5.96619
0.5635	-4.15039
0.5636	-5.15747
0.5637	-6.2561
0.5638	-5.82886
0.5639	-5.8136
0.564	-5.64575
0.5641	-4.31824
0.5642	-6.79016
0.5643	-5.02014
0.5644	-4.56238
0.5645	-5.02014
0.5646	-5.92041
0.5647	-5.41687
0.5648	-6.53076
0.5649	-5.38635
0.565	-5.17273
0.5651	-4.94385
0.5652	-6.66809
0.5653	-5.50842
0.5654	-7.72095
0.5655	-5.75256
0.5656	-5.75256
0.5657	-6.56128
0.5658	-6.22559
0.5659	-5.41687
0.566	-4.95911
0.5661	-6.05774
0.5662	-5.87463
0.5663	-5.82886
0.5664	-9.01794
0.5665	-6.69861
0.5666	-5.15747
0.5667	-4.89807
0.5668	-6.01196
0.5669	-6.50024
0.567	-7.36999
0.5671	-11.0626
0.5672	-10.4523
0.5673	-6.39343
0.5674	-5.8136
0.5675	-6.95801
0.5676	-6.97327
0.5677	-6.22559
0.5678	-7.33948
0.5679	-7.59888
0.568	-5.7373
0.5681	-5.05066
0.5682	-6.63757
0.5683	-6.04248
0.5684	-6.3324
0.5685	-4.71497
0.5686	-6.83594
0.5687	-5.23376
0.5688	-6.02722
0.5689	-5.40161
0.569	-7.94983
0.5691	-6.54602
0.5692	-8.45337
0.5693	-8.0719
0.5694	-8.40759
0.5695	-6.57654
0.5696	-5.96619
0.5697	-5.2948
0.5698	-5.11169
0.5699	-5.63049
0.57	-5.69153
0.5701	-6.5918
0.5702	-5.00488
0.5703	-5.49316
0.5704	-9.68933
0.5705	-7.09534
0.5706	-6.073
0.5707	-5.12695
0.5708	-10.788
0.5709	-6.50024
0.571	-7.24792
0.5711	-6.24084
0.5712	-5.90515
0.5713	-5.82886
0.5714	-5.84412
0.5715	-5.79834
0.5716	-5.53894
0.5717	-5.98144
0.5718	-6.11877
0.5719	-6.31714
0.572	-6.60706
0.5721	-4.88281
0.5722	-5.84412
0.5723	-5.53894
0.5724	-6.45447
0.5725	-5.95093
0.5726	-5.87463
0.5727	-6.69861
0.5728	-5.52368
0.5729	-7.00378
0.573	-6.17981
0.5731	-5.69153
0.5732	-5.7373
0.5733	-5.53894
0.5734	-4.5929
0.5735	-7.49206
0.5736	-6.02722
0.5737	-5.37109
0.5738	-6.80542
0.5739	-6.91223
0.574	-5.64575
0.5741	-5.37109
0.5742	-5.9967
0.5743	-6.14929
0.5744	-5.20325
0.5745	-6.37817
0.5746	-7.01904
0.5747	-5.53894
0.5748	-5.96619
0.5749	-5.37109
0.575	-6.40869
0.5751	-5.26428
0.5752	-6.57654
0.5753	-4.776
0.5754	-5.31006
0.5755	-6.7749
0.5756	-6.08826
0.5757	-5.64575
0.5758	-3.9978
0.5759	-5.24902
0.576	-7.0343
0.5761	-5.08118
0.5762	-5.05066
0.5763	-5.53894
0.5764	-4.5166
0.5765	-5.93567
0.5766	-3.72314
0.5767	-3.8147
0.5768	-5.2948
0.5769	-4.86755
0.577	-4.85229
0.5771	-5.92041
0.5772	-5.61523
0.5773	-7.12585
0.5774	-5.21851
0.5775	-8.72803
0.5776	-5.21851
0.5777	-5.96619
0.5778	-5.88989
0.5779	-5.61523
0.578	-9.91821
0.5781	-6.073
0.5782	-6.54602
0.5783	-8.91113
0.5784	-7.2937
0.5785	-7.43103
0.5786	-6.40869
0.5787	-7.5531
0.5788	-5.58472
0.5789	-7.09534
0.579	-5.26428
0.5791	-5.95093
0.5792	-5.2948
0.5793	-5.41687
0.5794	-6.68335
0.5795	-6.21033
0.5796	-7.76672
0.5797	-5.95093
0.5798	-6.3324
0.5799	-8.37707
0.58	-6.66809
0.5801	-4.53186
0.5802	-5.06592
0.5803	-5.23376
0.5804	-5.46265
0.5805	-5.20325
0.5806	-6.5155
0.5807	-6.5155
0.5808	-6.073
0.5809	-5.75256
0.581	-5.61523
0.5811	-6.66809
0.5812	-5.66101
0.5813	-6.17981
0.5814	-5.64575
0.5815	-5.18799
0.5816	-6.5918
0.5817	-6.60706
0.5818	-8.42285
0.5819	-6.79016
0.582	-3.75366
0.5821	-5.78308
0.5822	-5.88989
0.5823	-6.50024
0.5824	-5.75256
0.5825	-5.32532
0.5826	-6.5918
0.5827	-6.22559
0.5828	-5.27954
0.5829	-5.12695
0.583	-6.08826
0.5831	-4.74548
0.5832	-5.79834
0.5833	-6.14929
0.5834	-3.96728
0.5835	-5.20325
0.5836	-7.76672
0.5837	-4.53186
0.5838	-7.08008
0.5839	-5.38635
0.584	-5.05066
0.5841	-5.08118
0.5842	-5.59998
0.5843	-4.68445
0.5844	-8.63647
0.5845	-5.92041
0.5846	-6.31714
0.5847	-4.98962
0.5848	-5.38635
0.5849	-6.83594
0.585	-6.98852
0.5851	-5.41687
0.5852	-5.5542
0.5853	-6.073
0.5854	-6.08826
0.5855	-6.08826
0.5856	-5.2948
0.5857	-8.71277
0.5858	-6.5918
0.5859	-5.76782
0.586	-6.14929
0.5861	-6.16455
0.5862	-5.85937
0.5863	-6.16455
0.5864	-7.76672
0.5865	-4.76074
0.5866	-4.62341
0.5867	-8.01086
0.5868	-11.4746
0.5869	-10.1318
0.587	-11.9019
0.5871	-7.70569
0.5872	-6.60706
0.5873	-7.40051
0.5874	-4.88281
0.5875	-6.89697
0.5876	-9.1095
0.5877	-6.89697
0.5878	-5.40161
0.5879	-7.76672
0.588	-7.36999
0.5881	-7.8125
0.5882	-5.53894
0.5883	-4.91333
0.5884	-10.1624
0.5885	-6.48498
0.5886	-6.36291
0.5887	-5.17273
0.5888	-8.72803
0.5889	-7.73621
0.589	-10.8337
0.5891	-5.49316
0.5892	-4.79126
0.5893	-6.53076
0.5894	-5.76782
0.5895	-6.50024
0.5896	-8.255
0.5897	-11.3678
0.5898	-12.3444
0.5899	-6.71387
0.59	-6.08826
0.5901	-5.23376
0.5902	-6.82068
0.5903	-7.9956
0.5904	-8.31604
0.5905	-8.69751
0.5906	-6.56128
0.5907	-6.08826
0.5908	-10.5286
0.5909	-5.61523
0.591	-5.95093
0.5911	-4.60815
0.5912	-5.9967
0.5913	-5.92041
0.5914	-5.59998
0.5915	-5.50842
0.5916	-4.50134
0.5917	-4.68445
0.5918	-5.90515
0.5919	-5.40161
0.592	-5.08118
0.5921	-5.92041
0.5922	-6.39343
0.5923	-6.53076
0.5924	-6.92749
0.5925	-7.23267
0.5926	-7.82776
0.5927	-5.8136
0.5928	-5.46265
0.5929	-6.92749
0.593	-10.1776
0.5931	-11.5356
0.5932	-10.7574
0.5933	-12.207
0.5934	-11.4593
0.5935	-10.8032
0.5936	-6.39343
0.5937	-6.11877
0.5938	-4.97436
0.5939	-5.38635
0.594	-5.76782
0.5941	-11.0474
0.5942	-10.5438
0.5943	-9.84192
0.5944	-11.1237
0.5945	-10.9711
0.5946	-11.1847
0.5947	-11.0321
0.5948	-11.5814
0.5949	-9.06372
0.595	-10.6201
0.5951	-11.3983
0.5952	-10.5743
0.5953	-12.558
0.5954	-10.5133
0.5955	-11.0016
0.5956	-11.1237
0.5957	-10.788
0.5958	-11.3678
0.5959	-9.59778
0.596	-10.6506
0.5961	-10.788
0.5962	-11.5509
0.5963	-11.2152
0.5964	-12.4817
0.5965	-11.0168
0.5966	-12.0544
0.5967	-11.2305
0.5968	-9.67407
0.5969	-10.5591
0.597	-12.6038
0.5971	-11.261
0.5972	-11.9476
0.5973	-10.8795
0.5974	-11.1084
0.5975	-12.6495
0.5976	-11.1694
0.5977	-12.4817
0.5978	-11.4136
0.5979	-11.3373
0.598	-10.8643
0.5981	-10.6201
0.5982	-10.8948
0.5983	-11.322
0.5984	-10.6354
0.5985	-11.1084
0.5986	-11.0779
0.5987	-11.2457
0.5988	-11.3525
0.5989	-11.1694
0.599	-11.0626
0.5991	-11.4593
0.5992	-11.5509
0.5993	-11.0168
0.5994	-11.9781
0.5995	-12.3749
0.5996	-10.7574
0.5997	-10.9253
0.5998	-11.2457
0.5999	-11.2457
0.6	-11.8561
0.6001	-10.5133
0.6002	-10.6201
0.6003	-11.2915
0.6004	-10.5133
0.6005	-11.4136
0.6006	-12.4054
0.6007	-11.5967
0.6008	-10.8643
0.6009	-11.4746
0.601	-11.0168
0.6011	-11.2152
0.6012	-11.7187
0.6013	-11.3373
0.6014	-11.6119
0.6015	-10.1776
0.6016	-11.8866
0.6017	-10.8185
0.6018	-10.3912
0.6019	-11.6119
0.602	-11.0168
0.6021	-10.2081
0.6022	-11.3831
0.6023	-11.5509
0.6024	-10.2539
0.6025	-12.0392
0.6026	-11.4593
0.6027	-11.2305
0.6028	-11.9171
0.6029	-11.6577
0.603	-10.9863
0.6031	-11.3678
0.6032	-11.4746
0.6033	-11.6119
0.6034	-11.1694
0.6035	-11.3831
0.6036	-11.5204
0.6037	-11.0321
0.6038	-11.795
0.6039	-11.5509
0.604	-10.6659
0.6041	-12.1307
0.6042	-12.3596
0.6043	-10.6506
0.6044	-11.9019
0.6045	-10.1929
0.6046	-10.6201
0.6047	-12.146
0.6048	-11.8408
0.6049	-10.7727
0.605	-10.91
0.6051	-11.322
0.6052	-12.6648
0.6053	-10.6812
0.6054	-11.2152
0.6055	-11.7187
0.6056	-10.5743
0.6057	-11.0626
0.6058	-12.0392
0.6059	-11.1542
0.606	-11.5814
0.6061	-11.9019
0.6062	-11.7493
0.6063	-10.6659
0.6064	-10.5591
0.6065	-11.5204
0.6066	-12.3138
0.6067	-10.8643
0.6068	-11.4746
0.6069	-10.7727
0.607	-10.3912
0.6071	-11.1237
0.6072	-10.2997
0.6073	-12.4054
0.6074	-10.437
0.6075	-12.207
0.6076	-10.6049
0.6077	-11.7187
0.6078	-10.5438
0.6079	-11.0321
0.608	-10.9711
0.6081	-10.5286
0.6082	-12.5427
0.6083	-12.085
0.6084	-11.2152
0.6085	-11.2457
0.6086	-11.7035
0.6087	-12.3901
0.6088	-9.44519
0.6089	-11.3678
0.609	-12.0087
0.6091	-11.3373
0.6092	-11.3678
0.6093	-11.8713
0.6094	-11.322
0.6095	-11.3068
0.6096	-12.1613
0.6097	-11.4593
0.6098	-11.2305
0.6099	-12.0392
0.61	-11.8866
0.6101	-11.795
0.6102	-12.3749
0.6103	-10.6812
0.6104	-10.9558
0.6105	-11.7493
0.6106	-11.7187
0.6107	-10.4065
0.6108	-11.9019
0.6109	-10.6354
0.611	-11.1847
0.6111	-12.1002
0.6112	-11.5204
0.6113	-11.2152
0.6114	-10.6659
0.6115	-10.0098
0.6116	-6.45447
0.6117	-4.92859
0.6118	-7.1106
0.6119	-6.17981
0.612	-5.27954
0.6121	-6.16455
0.6122	-7.87353
0.6123	-11.3068
0.6124	-12.558
0.6125	-11.7187
0.6126	-10.8337
0.6127	-11.1847
0.6128	-10.5896
0.6129	-11.1694
0.613	-11.8561
0.6131	-11.1084
0.6132	-11.7493
0.6133	-11.9019
0.6134	-10.5591
0.6135	-11.4441
0.6136	-10.7422
0.6137	-9.8114
0.6138	-11.4593
0.6139	-11.8256
0.614	-10.9253
0.6141	-10.5591
0.6142	-12.9547
0.6143	-10.7727
0.6144	-11.4441
0.6145	-11.0168
0.6146	-12.3444
0.6147	-11.3831
0.6148	-10.9711
0.6149	-11.5051
0.615	-11.6425
0.6151	-11.4288
0.6152	-10.9253
0.6153	-10.8643
0.6154	-12.1002
0.6155	-11.0016
0.6156	-11.0321
0.6157	-11.5814
0.6158	-12.8021
0.6159	-11.8561
0.616	-10.498
0.6161	-11.2
0.6162	-11.2762
0.6163	-11.1542
0.6164	-11.1847
0.6165	-12.1002
0.6166	-12.3596
0.6167	-11.261
0.6168	-10.498
0.6169	-10.91
0.617	-11.5967
0.6171	-11.3373
0.6172	-11.9629
0.6173	-11.5662
0.6174	-12.0392
0.6175	-12.5732
0.6176	-12.146
0.6177	-11.0321
0.6178	-12.1613
0.6179	-11.795
0.618	-10.9406
0.6181	-12.0239
0.6182	-12.9395
0.6183	-11.322
0.6184	-11.5356
0.6185	-12.146
0.6186	-11.8256
0.6187	-12.4664
0.6188	-12.5122
0.6189	-12.4359
0.619	-11.7645
0.6191	-11.0474
0.6192	-11.2762
0.6193	-11.5356
0.6194	-11.7798
0.6195	-10.8337
0.6196	-10.8337
0.6197	-11.9476
0.6198	-12.1918
0.6199	-11.2152
0.62	-11.5051
0.6201	-11.8866
0.6202	-10.6964
0.6203	-11.1084
0.6204	-11.2152
0.6205	-11.9934
0.6206	-11.5967
0.6207	-11.9781
0.6208	-12.0087
0.6209	-11.2
0.621	-11.2762
0.6211	-11.9324
0.6212	-11.8561
0.6213	-10.9711
0.6214	-11.2305
0.6215	-10.4828
0.6216	-11.0779
0.6217	-11.6272
0.6218	-10.2081
0.6219	-10.6659
0.622	-11.0779
0.6221	-12.1155
0.6222	-10.7422
0.6223	-10.3912
0.6224	-10.8795
0.6225	-11.5356
0.6226	-11.3831
0.6227	-12.1002
0.6228	-11.3068
0.6229	-11.322
0.623	-11.4593
0.6231	-12.085
0.6232	-10.6049
0.6233	-11.673
0.6234	-11.5051
0.6235	-11.8256
0.6236	-11.5509
0.6237	-11.0626
0.6238	-11.261
0.6239	-10.7117
0.624	-11.3373
0.6241	-11.2305
0.6242	-11.8103
0.6243	-11.7493
0.6244	-11.9781
0.6245	-11.6882
0.6246	-12.0392
0.6247	-11.7035
0.6248	-10.8795
0.6249	-12.2681
0.625	-10.9711
0.6251	-10.788
0.6252	-12.0544
0.6253	-10.9863
0.6254	-7.61414
0.6255	-11.3831
0.6256	-11.5662
0.6257	-10.8032
0.6258	-10.7727
0.6259	-11.8256
0.626	-11.5814
0.6261	-11.2915
0.6262	-10.498
0.6263	-9.96399
0.6264	-12.1002
0.6265	-11.9476
0.6266	-10.6354
0.6267	-11.4136
0.6268	-11.1237
0.6269	-11.8561
0.627	-11.9324
0.6271	-11.7187
0.6272	-10.1013
0.6273	-12.207
0.6274	-11.7493
0.6275	-10.6812
0.6276	-11.1389
0.6277	-11.5814
0.6278	-11.4746
0.6279	-10.7574
0.628	-12.4512
0.6281	-11.0016
0.6282	-11.9476
0.6283	-11.322
0.6284	-10.8032
0.6285	-12.3291
0.6286	-12.2681
0.6287	-11.4288
0.6288	-10.91
0.6289	-11.2762
0.629	-11.1847
0.6291	-11.5967
0.6292	-11.9781
0.6293	-11.7035
0.6294	-11.6882
0.6295	-10.5438
0.6296	-11.9171
0.6297	-11.4136
0.6298	-9.26208
0.6299	-11.7493
0.63	-11.0779
0.6301	-11.3068
0.6302	-11.5204
0.6303	-11.3373
0.6304	-12.8632
0.6305	-11.673
0.6306	-12.1765
0.6307	-10.2234
0.6308	-10.2692
0.6309	-9.09424
0.631	-7.64465
0.6311	-9.23157
0.6312	-10.6506
0.6313	-11.9324
0.6314	-11.5051
0.6315	-10.7422
0.6316	-11.5662
0.6317	-11.8713
0.6318	-11.2915
0.6319	-11.4288
0.632	-11.8713
0.6321	-9.84192
0.6322	-11.734
0.6323	-10.2386
0.6324	-11.261
0.6325	-10.3149
0.6326	-10.8643
0.6327	-10.9863
0.6328	-11.1389
0.6329	-11.4746
0.633	-10.6812
0.6331	-11.9781
0.6332	-12.3596
0.6333	-10.3149
0.6334	-11.4746
0.6335	-11.7187
0.6336	-11.5509
0.6337	-12.207
0.6338	-12.7106
0.6339	-10.8795
0.634	-11.3831
0.6341	-11.3831
0.6342	-11.3068
0.6343	-11.5814
0.6344	-11.9934
0.6345	-10.437
0.6346	-11.8103
0.6347	-11.5509
0.6348	-11.6425
0.6349	-9.91821
0.635	-11.0321
0.6351	-11.0321
0.6352	-10.8032
0.6353	-11.3678
0.6354	-12.5122
0.6355	-9.87244
0.6356	-11.3373
0.6357	-11.7798
0.6358	-11.8866
0.6359	-11.2457
0.636	-10.498
0.6361	-11.4746
0.6362	-11.5814
0.6363	-11.4899
0.6364	-11.5356
0.6365	-10.9406
0.6366	-11.322
0.6367	-11.3678
0.6368	-11.4746
0.6369	-12.1613
0.637	-11.7035
0.6371	-11.8866
0.6372	-11.7645
0.6373	-10.437
0.6374	-11.7798
0.6375	-11.8713
0.6376	-12.1307
0.6377	-10.4675
0.6378	-10.9558
0.6379	-13.1531
0.638	-11.1542
0.6381	-10.8795
0.6382	-11.3525
0.6383	-12.1307
0.6384	-10.788
0.6385	-11.5814
0.6386	-11.2915
0.6387	-11.5356
0.6388	-12.5122
0.6389	-12.1918
0.639	-11.322
0.6391	-12.0087
0.6392	-11.2457
0.6393	-11.0168
0.6394	-10.849
0.6395	-12.6801
0.6396	-12.0239
0.6397	-11.3983
0.6398	-11.3678
0.6399	-10.849
0.64	-10.8795
0.6401	-12.0392
0.6402	-11.6119
0.6403	-11.9476
0.6404	-11.4288
0.6405	-11.3068
0.6406	-12.0544
0.6407	-12.085
0.6408	-11.3678
0.6409	-12.1613
0.641	-12.2528
0.6411	-11.734
0.6412	-11.1694
0.6413	-10.8032
0.6414	-12.6495
0.6415	-11.9324
0.6416	-11.2305
0.6417	-11.5356
0.6418	-11.9019
0.6419	-11.5356
0.642	-11.3831
0.6421	-11.8561
0.6422	-10.7727
0.6423	-11.4899
0.6424	-11.4136
0.6425	-11.1694
0.6426	-12.0392
0.6427	-10.7574
0.6428	-11.3525
0.6429	-11.8408
0.643	-10.9406
0.6431	-11.7645
0.6432	-10.8643
0.6433	-10.4675
0.6434	-10.2997
0.6435	-11.9171
0.6436	-10.1624
0.6437	-11.5051
0.6438	-11.2
0.6439	-10.6812
0.644	-12.0392
0.6441	-11.5509
0.6442	-12.558
0.6443	-11.4288
0.6444	-11.5204
0.6445	-11.7187
0.6446	-12.97
0.6447	-10.1624
0.6448	-11.5509
0.6449	-11.5204
0.645	-8.02612
0.6451	-11.8408
0.6452	-10.9253
0.6453	-10.6201
0.6454	-11.4593
0.6455	-11.3373
0.6456	-11.6119
0.6457	-11.5662
0.6458	-10.0708
0.6459	-11.5814
0.646	-7.18689
0.6461	-11.4899
0.6462	-10.4523
0.6463	-11.7645
0.6464	-11.4136
0.6465	-11.1542
0.6466	-12.0697
0.6467	-11.5509
0.6468	-11.6577
0.6469	-10.6812
0.647	-10.7574
0.6471	-10.9253
0.6472	-10.3149
0.6473	-12.1155
0.6474	-10.91
0.6475	-11.8561
0.6476	-10.9711
0.6477	-11.8408
0.6478	-11.3068
0.6479	-10.91
0.648	-11.3831
0.6481	-10.9406
0.6482	-11.3373
0.6483	-11.3678
0.6484	-12.9242
0.6485	-12.1002
0.6486	-11.4136
0.6487	-11.0931
0.6488	-11.3678
0.6489	-11.2152
0.649	-12.1765
0.6491	-11.0626
0.6492	-12.7106
0.6493	-12.0392
0.6494	-13.5498
0.6495	-10.849
0.6496	-12.7869
0.6497	-11.3831
0.6498	-11.5814
0.6499	-11.0016
0.65	-12.3749
0.6501	-10.8948
0.6502	-11.0931
0.6503	-11.2915
0.6504	-11.8866
0.6505	-11.2915
0.6506	-10.498
0.6507	-11.8561
0.6508	-11.2457
0.6509	-11.7187
0.651	-12.1155
0.6511	-11.2152
0.6512	-11.3373
0.6513	-10.8032
0.6514	-12.207
0.6515	-11.9781
0.6516	-11.0321
0.6517	-11.3373
0.6518	-11.0016
0.6519	-9.76562
0.652	-11.8256
0.6521	-11.3831
0.6522	-11.6577
0.6523	-10.4065
0.6524	-11.261
0.6525	-12.3749
0.6526	-10.4218
0.6527	-10.5286
0.6528	-12.4359
0.6529	-11.1694
0.653	-11.0626
0.6531	-12.146
0.6532	-10.9406
0.6533	-11.0931
0.6534	-11.5509
0.6535	-11.1389
0.6536	-10.7727
0.6537	-10.3302
0.6538	-12.3444
0.6539	-11.5814
0.654	-12.558
0.6541	-11.2762
0.6542	-10.6964
0.6543	-11.1694
0.6544	-11.4899
0.6545	-10.9711
0.6546	-11.6577
0.6547	-10.7574
0.6548	-11.8866
0.6549	-12.9547
0.655	-11.7035
0.6551	-12.0697
0.6552	-10.4675
0.6553	-11.6272
0.6554	-11.8561
0.6555	-11.4136
0.6556	-11.2152
0.6557	-11.5509
0.6558	-11.2762
0.6559	-9.99451
0.656	-11.2305
0.6561	-12.3596
0.6562	-10.6049
0.6563	-11.0626
0.6564	-11.2915
0.6565	-11.2457
0.6566	-10.91
0.6567	-11.2915
0.6568	-11.322
0.6569	-12.3901
0.657	-10.4828
0.6571	-10.788
0.6572	-11.1542
0.6573	-11.4593
0.6574	-10.8032
0.6575	-11.7493
0.6576	-11.6119
0.6577	-11.5356
0.6578	-12.0697
0.6579	-10.9558
0.658	-11.8103
0.6581	-11.5814
0.6582	-12.1765
0.6583	-10.9863
0.6584	-11.7187
0.6585	-12.4054
0.6586	-11.6272
0.6587	-12.619
0.6588	-11.1694
0.6589	-11.5356
0.659	-12.1765
0.6591	-12.7106
0.6592	-11.3983
0.6593	-11.1847
0.6594	-11.7187
0.6595	-11.4593
0.6596	-11.261
0.6597	-11.6272
0.6598	-10.8337
0.6599	-10.1013
0.66	-11.9781
0.6601	-11.2762
0.6602	-11.4746
0.6603	-10.2997
0.6604	-14.4958
0.6605	-12.4207
0.6606	-11.0016
0.6607	-10.7269
0.6608	-9.94873
0.6609	-12.3901
0.661	-10.6659
0.6611	-12.146
0.6612	-10.6659
0.6613	-11.1237
0.6614	-11.8866
0.6615	-10.1471
0.6616	-11.2915
0.6617	-11.5204
0.6618	-10.2997
0.6619	-11.1237
0.662	-11.5051
0.6621	-11.9019
0.6622	-11.3983
0.6623	-10.6201
0.6624	-10.6049
0.6625	-12.2528
0.6626	-11.2305
0.6627	-7.90405
0.6628	-12.1307
0.6629	-11.0931
0.663	-11.9171
0.6631	-10.849
0.6632	-11.2457
0.6633	-12.0239
0.6634	-10.5896
0.6635	-12.2223
0.6636	-10.9253
0.6637	-11.5967
0.6638	-10.9711
0.6639	-11.2915
0.664	-11.0931
0.6641	-11.0016
0.6642	-11.9476
0.6643	-11.3373
0.6644	-11.0016
0.6645	-11.2
0.6646	-10.3607
0.6647	-11.7645
0.6648	-12.8326
0.6649	-10.7574
0.665	-11.0016
0.6651	-10.0555
0.6652	-10.7727
0.6653	-11.6119
0.6654	-11.6425
0.6655	-12.2833
0.6656	-10.9711
0.6657	-11.5814
0.6658	-10.8032
0.6659	-12.7563
0.666	-10.7574
0.6661	-9.99451
0.6662	-11.322
0.6663	-11.5662
0.6664	-11.9019
0.6665	-10.6354
0.6666	-10.2539
0.6667	-11.3983
0.6668	-13.3057
0.6669	-10.5591
0.667	-11.8103
0.6671	-10.4218
0.6672	-11.5509
0.6673	-11.673
0.6674	-12.2681
0.6675	-11.9324
0.6676	-11.0626
0.6677	-12.4664
0.6678	-12.0392
0.6679	-11.8561
0.668	-11.0931
0.6681	-12.5732
0.6682	-11.1084
0.6683	-12.1155
0.6684	-12.1918
0.6685	-11.7187
0.6686	-12.207
0.6687	-11.7035
0.6688	-11.1084
0.6689	-11.3983
0.669	-12.6801
0.6691	-11.5356
0.6692	-10.6659
0.6693	-13.0615
0.6694	-10.8795
0.6695	-11.3068
0.6696	-11.5051
0.6697	-11.734
0.6698	-11.6119
0.6699	-11.5356
0.67	-10.9406
0.6701	-11.5662
0.6702	-11.1694
0.6703	-10.3455
0.6704	-12.207
0.6705	-11.4899
0.6706	-11.6882
0.6707	-9.96399
0.6708	-11.8256
0.6709	-11.3678
0.671	-11.5204
0.6711	-11.2305
0.6712	-13.1378
0.6713	-11.7645
0.6714	-10.9863
0.6715	-11.7187
0.6716	-11.3068
0.6717	-11.0321
0.6718	-10.6812
0.6719	-12.1613
0.672	-10.8948
0.6721	-10.5438
0.6722	-11.5814
0.6723	-10.6964
0.6724	-11.2457
0.6725	-11.3831
0.6726	-11.8103
0.6727	-10.7574
0.6728	-10.8032
0.6729	-12.7869
0.673	-10.9406
0.6731	-12.5732
0.6732	-11.3831
0.6733	-11.9629
0.6734	-11.4136
0.6735	-12.2375
0.6736	-11.1694
0.6737	-10.5133
0.6738	-11.1389
0.6739	-11.8561
0.674	-11.6119
0.6741	-11.9629
0.6742	-11.5051
0.6743	-11.3983
0.6744	-12.0239
0.6745	-11.0779
0.6746	-11.1084
0.6747	-11.4746
0.6748	-9.88769
0.6749	-11.9781
0.675	-11.3525
0.6751	-12.5732
0.6752	-9.64355
0.6753	-11.2915
0.6754	-10.788
0.6755	-10.6201
0.6756	-12.4512
0.6757	-11.7798
0.6758	-11.3831
0.6759	-11.0626
0.676	-12.2223
0.6761	-11.7798
0.6762	-12.5275
0.6763	-10.6049
0.6764	-12.7563
0.6765	-11.322
0.6766	-12.085
0.6767	-11.1084
0.6768	-13.2751
0.6769	-10.7269
0.677	-11.4441
0.6771	-12.0544
0.6772	-11.795
0.6773	-12.0087
0.6774	-11.3678
0.6775	-11.0779
0.6776	-12.085
0.6777	-11.1389
0.6778	-11.0168
0.6779	-10.2081
0.678	-10.6964
0.6781	-12.0697
0.6782	-11.5509
0.6783	-11.2152
0.6784	-11.5967
0.6785	-12.6801
0.6786	-10.6812
0.6787	-12.1002
0.6788	-12.3749
0.6789	-11.3373
0.679	-11.1847
0.6791	-12.2223
0.6792	-11.5814
0.6793	-10.1013
0.6794	-12.1613
0.6795	-11.6577
0.6796	-10.3455
0.6797	-10.1929
0.6798	-11.4288
0.6799	-10.4675
0.68	-11.9476
0.6801	-12.0544
0.6802	-12.5885
0.6803	-10.8032
0.6804	-11.9476
0.6805	-11.8408
0.6806	-11.1237
0.6807	-9.65881
0.6808	-11.5814
0.6809	-10.788
0.681	-11.9324
0.6811	-11.7035
0.6812	-11.795
0.6813	-12.9089
0.6814	-12.9242
0.6815	-12.146
0.6816	-11.734
0.6817	-10.3149
0.6818	-12.5732
0.6819	-11.6425
0.682	-11.0931
0.6821	-12.3901
0.6822	-11.261
0.6823	-12.0697
0.6824	-12.6495
0.6825	-11.4288
0.6826	-10.5133
0.6827	-12.0697
0.6828	-12.0392
0.6829	-11.7187
0.683	-12.3138
0.6831	-11.5356
0.6832	-11.795
0.6833	-10.1471
0.6834	-13.2294
0.6835	-12.8021
0.6836	-11.5051
0.6837	-10.7269
0.6838	-12.3596
0.6839	-11.1237
0.684	-11.9171
0.6841	-11.6272
0.6842	-11.3678
0.6843	-11.7187
0.6844	-10.788
0.6845	-12.2375
0.6846	-10.4828
0.6847	-11.6272
0.6848	-11.734
0.6849	-11.2
0.685	-10.2844
0.6851	-12.1307
0.6852	-10.8643
0.6853	-11.0779
0.6854	-11.8256
0.6855	-10.0403
0.6856	-10.7422
0.6857	-8.37707
0.6858	-11.5356
0.6859	-10.8948
0.686	-10.849
0.6861	-11.3068
0.6862	-12.2833
0.6863	-11.2
0.6864	-12.0392
0.6865	-9.59778
0.6866	-11.3678
0.6867	-11.6425
0.6868	-10.4828
0.6869	-10.498
0.687	-12.8174
0.6871	-10.8185
0.6872	-10.9253
0.6873	-11.5356
0.6874	-12.146
0.6875	-9.90295
0.6876	-10.6812
0.6877	-11.4441
0.6878	-10.9711
0.6879	-10.6049
0.688	-10.9711
0.6881	-11.9934
0.6882	-10.3912
0.6883	-11.5662
0.6884	-11.3831
0.6885	-11.5051
0.6886	-12.1613
0.6887	-10.7727
0.6888	-11.9629
0.6889	-11.4288
0.689	-12.1307
0.6891	-11.8866
0.6892	-10.9863
0.6893	-12.7106
0.6894	-11.0626
0.6895	-11.795
0.6896	-11.0626
0.6897	-12.1002
0.6898	-12.5427
0.6899	-11.9324
0.69	-10.8948
0.6901	-11.3068
0.6902	-11.6577
0.6903	-12.1155
0.6904	-11.322
0.6905	-10.3149
0.6906	-10.0708
0.6907	-12.2375
0.6908	-11.9629
0.6909	-11.0626
0.691	-11.2457
0.6911	-12.5275
0.6912	-10.3912
0.6913	-11.261
0.6914	-10.3302
0.6915	-11.4136
0.6916	-11.7645
0.6917	-11.4441
0.6918	-11.6882
0.6919	-10.8795
0.692	-11.2762
0.6921	-11.9934
0.6922	-12.1155
0.6923	-11.5356
0.6924	-11.2152
0.6925	-11.6577
0.6926	-11.9476
0.6927	-11.673
0.6928	-11.2305
0.6929	-12.4207
0.693	-11.5814
0.6931	-11.1084
0.6932	-10.8795
0.6933	-11.4593
0.6934	-11.3068
0.6935	-10.6354
0.6936	-12.6801
0.6937	-11.1694
0.6938	-11.7645
0.6939	-11.8866
0.694	-10.91
0.6941	-12.4359
0.6942	-11.3373
0.6943	-11.4288
0.6944	-10.3149
0.6945	-11.2
0.6946	-12.8174
0.6947	-12.1918
0.6948	-11.3831
0.6949	-11.5356
0.695	-10.2234
0.6951	-11.2152
0.6952	-10.0861
0.6953	-11.9629
0.6954	-10.6659
0.6955	-11.5967
0.6956	-9.552
0.6957	-11.0779
0.6958	-11.6577
0.6959	-11.2305
0.696	-11.9171
0.6961	-10.3149
0.6962	-11.0931
0.6963	-11.6425
0.6964	-11.8561
0.6965	-11.0931
0.6966	-11.9171
0.6967	-12.0239
0.6968	-11.1084
0.6969	-12.2986
0.697	-11.8561
0.6971	-11.3678
0.6972	-11.5814
0.6973	-7.53784
0.6974	-10.3302
0.6975	-12.0239
0.6976	-11.9629
0.6977	-12.2223
0.6978	-10.9253
0.6979	-11.7187
0.698	-11.7187
0.6981	-11.9781
0.6982	-10.2692
0.6983	-10.4218
0.6984	-12.3138
0.6985	-10.1166
0.6986	-10.2692
0.6987	-11.2457
0.6988	-11.2915
0.6989	-10.7117
0.699	-12.3749
0.6991	-10.7269
0.6992	-11.6119
0.6993	-9.70459
0.6994	-10.7269
0.6995	-11.0321
0.6996	-10.2081
0.6997	-11.9171
0.6998	-11.1847
0.6999	-10.5896
0.7	-11.5967
0.7001	-11.9171
0.7002	-11.4136
0.7003	-11.9629
0.7004	-10.8795
0.7005	-10.5591
0.7006	-11.9324
0.7007	-10.8948
0.7008	-11.0931
0.7009	-11.0016
0.701	-11.9324
0.7011	-10.6354
0.7012	-11.8866
0.7013	-9.71985
0.7014	-10.2692
0.7015	-11.1084
0.7016	-9.99451
0.7017	-11.9629
0.7018	-11.2152
0.7019	-11.0321
0.702	-10.8948
0.7021	-11.673
0.7022	-10.5133
0.7023	-11.5356
0.7024	-11.1237
0.7025	-10.498
0.7026	-12.5275
0.7027	-10.6659
0.7028	-11.3983
0.7029	-12.3444
0.703	-11.5967
0.7031	-11.1389
0.7032	-10.9406
0.7033	-10.4828
0.7034	-10.7727
0.7035	-10.6354
0.7036	-11.322
0.7037	-11.2152
0.7038	-11.5509
0.7039	-10.0708
0.704	-9.99451
0.7041	-11.4593
0.7042	-11.5509
0.7043	-12.2223
0.7044	-10.788
0.7045	-9.68933
0.7046	-10.9863
0.7047	-11.3831
0.7048	-10.498
0.7049	-11.5662
0.705	-13.5651
0.7051	-10.9558
0.7052	-10.9406
0.7053	-11.7645
0.7054	-11.8561
0.7055	-11.9934
0.7056	-11.0779
0.7057	-10.6506
0.7058	-13.2446
0.7059	-9.79614
0.706	-12.4207
0.7061	-12.6495
0.7062	-11.6577
0.7063	-10.7269
0.7064	-10.3607
0.7065	-12.3291
0.7066	-11.9171
0.7067	-11.4136
0.7068	-12.1002
0.7069	-12.1307
0.707	-11.1542
0.7071	-12.3749
0.7072	-10.7117
0.7073	-11.3525
0.7074	-11.4593
0.7075	-11.734
0.7076	-11.2915
0.7077	-11.5967
0.7078	-10.6354
0.7079	-11.1084
0.708	-11.8256
0.7081	-12.207
0.7082	-12.7411
0.7083	-10.7727
0.7084	-12.2986
0.7085	-11.6272
0.7086	-11.5509
0.7087	-12.0392
0.7088	-10.6964
0.7089	-12.558
0.709	-11.9171
0.7091	-11.2762
0.7092	-11.1237
0.7093	-11.9629
0.7094	-11.5814
0.7095	-12.7716
0.7096	-12.4054
0.7097	-12.3749
0.7098	-11.6272
0.7099	-12.7258
0.71	-11.0626
0.7101	-11.6577
0.7102	-11.7645
0.7103	-11.7187
0.7104	-12.5275
0.7105	-12.5885
0.7106	-11.9171
0.7107	-12.1918
0.7108	-10.8337
0.7109	-11.4746
0.711	-12.0239
0.7111	-11.2457
0.7112	-12.1307
0.7113	-11.6425
0.7114	-11.6272
0.7115	-11.8713
0.7116	-11.3525
0.7117	-11.1084
0.7118	-12.0239
0.7119	-11.5967
0.712	-10.9863
0.7121	-11.5509
0.7122	-11.734
0.7123	-12.6495
0.7124	-12.7563
0.7125	-11.261
0.7126	-11.8103
0.7127	-8.65173
0.7128	-11.8256
0.7129	-11.4288
0.713	-11.2
0.7131	-8.78906
0.7132	-6.75964
0.7133	-8.0719
0.7134	-7.47681
0.7135	-7.65991
0.7136	-7.40051
0.7137	-11.1847
0.7138	-11.0931
0.7139	-11.2762
0.714	-10.5133
0.7141	-10.8185
0.7142	-10.2539
0.7143	-11.0779
0.7144	-8.74329
0.7145	-12.0392
0.7146	-11.4593
0.7147	-10.9406
0.7148	-10.9253
0.7149	-11.0931
0.715	-11.3373
0.7151	-10.4523
0.7152	-12.1002
0.7153	-11.3678
0.7154	-11.5204
0.7155	-12.085
0.7156	-10.9253
0.7157	-10.6201
0.7158	-10.9253
0.7159	-10.788
0.716	-11.0321
0.7161	-11.7035
0.7162	-11.4899
0.7163	-11.8256
0.7164	-10.91
0.7165	-10.498
0.7166	-9.41467
0.7167	-12.0392
0.7168	-11.795
0.7169	-10.437
0.717	-12.0087
0.7171	-11.7798
0.7172	-11.2915
0.7173	-11.0626
0.7174	-11.6272
0.7175	-10.1624
0.7176	-11.0321
0.7177	-10.4828
0.7178	-10.4828
0.7179	-9.85718
0.718	-11.2152
0.7181	-11.2915
0.7182	-10.6964
0.7183	-11.5967
0.7184	-12.2375
0.7185	-12.1918
0.7186	-10.2081
0.7187	-11.734
0.7188	-10.788
0.7189	-10.9558
0.719	-12.2528
0.7191	-11.3068
0.7192	-11.4136
0.7193	-11.5509
0.7194	-11.2
0.7195	-10.9253
0.7196	-11.8103
0.7197	-11.3831
0.7198	-11.0168
0.7199	-12.207
0.72	-10.437
0.7201	-11.6425
0.7202	-11.7187
0.7203	-11.2305
0.7204	-10.8032
0.7205	-10.3149
0.7206	-12.619
0.7207	-11.8408
0.7208	-11.1847
0.7209	-11.8256
0.721	-12.2528
0.7211	-11.8866
0.7212	-11.3831
0.7213	-10.6812
0.7214	-11.4288
0.7215	-10.2386
0.7216	-11.673
0.7217	-9.8114
0.7218	-10.91
0.7219	-11.1237
0.722	-10.849
0.7221	-9.90295
0.7222	-11.8256
0.7223	-13.0463
0.7224	-10.4218
0.7225	-10.5438
0.7226	-12.4817
0.7227	-11.0321
0.7228	-11.3678
0.7229	-10.498
0.723	-12.2223
0.7231	-10.8795
0.7232	-10.7269
0.7233	-11.5356
0.7234	-11.4593
0.7235	-11.5356
0.7236	-11.1237
0.7237	-10.9406
0.7238	-11.9629
0.7239	-11.0321
0.724	-12.207
0.7241	-12.0544
0.7242	-11.3373
0.7243	-10.5896
0.7244	-11.7187
0.7245	-10.5286
0.7246	-11.2152
0.7247	-12.0697
0.7248	-11.1542
0.7249	-11.0016
0.725	-11.3068
0.7251	-10.0555
0.7252	-11.5509
0.7253	-10.4675
0.7254	-11.1389
0.7255	-11.4288
0.7256	-10.4065
0.7257	-10.9711
0.7258	-12.1307
0.7259	-11.2305
0.726	-11.5662
0.7261	-11.7798
0.7262	-10.8795
0.7263	-11.8866
0.7264	-8.31604
0.7265	-5.66101
0.7266	-5.35583
0.7267	-4.82178
0.7268	-8.63647
0.7269	-9.90295
0.727	-11.1542
0.7271	-11.5356
0.7272	-10.6659
0.7273	-10.8643
0.7274	-10.9558
0.7275	-11.7798
0.7276	-11.1237
0.7277	-12.2986
0.7278	-11.0168
0.7279	-5.49316
0.728	-9.32312
0.7281	-12.1155
0.7282	-11.0168
0.7283	-11.0168
0.7284	-11.6119
0.7285	-8.95691
0.7286	-11.3678
0.7287	-11.8103
0.7288	-12.2681
0.7289	-11.0016
0.729	-11.1847
0.7291	-9.93347
0.7292	-11.0474
0.7293	-11.1694
0.7294	-11.322
0.7295	-10.91
0.7296	-11.1847
0.7297	-11.4593
0.7298	-11.5814
0.7299	-10.8948
0.73	-11.1542
0.7301	-11.4136
0.7302	-11.673
0.7303	-12.1307
0.7304	-11.0168
0.7305	-11.8866
0.7306	-11.8103
0.7307	-11.7035
0.7308	-11.4441
0.7309	-10.8948
0.731	-11.9781
0.7311	-11.1389
0.7312	-8.72803
0.7313	-10.8032
0.7314	-10.9558
0.7315	-11.5814
0.7316	-12.2375
0.7317	-10.6812
0.7318	-10.7574
0.7319	-10.0861
0.732	-10.7727
0.7321	-10.9863
0.7322	-11.7798
0.7323	-10.8032
0.7324	-10.1166
0.7325	-9.84192
0.7326	-10.4218
0.7327	-11.3831
0.7328	-11.7645
0.7329	-10.1624
0.733	-11.1542
0.7331	-9.01794
0.7332	-10.6354
0.7333	-11.1694
0.7334	-11.7035
0.7335	-10.8032
0.7336	-11.9629
0.7337	-11.1389
0.7338	-11.5662
0.7339	-10.3607
0.734	-12.085
0.7341	-11.1694
0.7342	-10.849
0.7343	-11.4746
0.7344	-10.2997
0.7345	-12.085
0.7346	-11.0779
0.7347	-10.849
0.7348	-11.1694
0.7349	-10.2234
0.735	-10.788
0.7351	-11.1237
0.7352	-11.3983
0.7353	-10.5286
0.7354	-10.9253
0.7355	-11.6425
0.7356	-11.795
0.7357	-11.5509
0.7358	-11.2152
0.7359	-11.4593
0.736	-11.1237
0.7361	-11.5356
0.7362	-11.1084
0.7363	-12.2833
0.7364	-11.2305
0.7365	-10.8337
0.7366	-10.8337
0.7367	-11.6272
0.7368	-10.4675
0.7369	-11.0474
0.737	-10.1929
0.7371	-11.4899
0.7372	-12.619
0.7373	-14.5111
0.7374	-11.1847
0.7375	-11.2457
0.7376	-8.62121
0.7377	-6.69861
0.7378	-12.3291
0.7379	-10.5743
0.738	-12.0087
0.7381	-10.7727
0.7382	-12.4512
0.7383	-11.4746
0.7384	-11.3068
0.7385	-12.207
0.7386	-11.2915
0.7387	-10.6354
0.7388	-12.3444
0.7389	-12.207
0.739	-11.2
0.7391	-11.1084
0.7392	-11.8866
0.7393	-12.207
0.7394	-10.6812
0.7395	-10.5438
0.7396	-11.7493
0.7397	-11.6577
0.7398	-10.4523
0.7399	-10.9558
0.74	-11.5814
0.7401	-10.7422
0.7402	-9.96399
0.7403	-11.9324
0.7404	-11.0321
0.7405	-11.7187
0.7406	-10.7269
0.7407	-10.3455
0.7408	-11.3373
0.7409	-11.5662
0.741	-12.085
0.7411	-11.6119
0.7412	-11.795
0.7413	-11.4441
0.7414	-10.0861
0.7415	-11.3678
0.7416	-10.8795
0.7417	-12.1765
0.7418	-10.9253
0.7419	-11.7187
0.742	-11.0321
0.7421	-10.1471
0.7422	-12.207
0.7423	-10.5286
0.7424	-11.7035
0.7425	-11.3678
0.7426	-10.3455
0.7427	-11.7798
0.7428	-10.8337
0.7429	-9.84192
0.743	-11.2915
0.7431	-11.5814
0.7432	-11.3068
0.7433	-6.37817
0.7434	-11.9781
0.7435	-9.68933
0.7436	-11.4746
0.7437	-9.68933
0.7438	-9.87244
0.7439	-8.13293
0.744	-12.1307
0.7441	-11.5051
0.7442	-11.9324
0.7443	-11.0474
0.7444	-11.0626
0.7445	-10.4523
0.7446	-9.67407
0.7447	-12.0392
0.7448	-11.7645
0.7449	-11.2152
0.745	-11.7798
0.7451	-12.0239
0.7452	-11.0931
0.7453	-12.1765
0.7454	-11.5509
0.7455	-10.0555
0.7456	-12.2375
0.7457	-11.7493
0.7458	-10.8948
0.7459	-11.795
0.746	-9.39941
0.7461	-11.3373
0.7462	-11.9629
0.7463	-11.4899
0.7464	-10.7727
0.7465	-9.52148
0.7466	-11.1847
0.7467	-11.0779
0.7468	-11.2
0.7469	-11.4899
0.747	-10.7727
0.7471	-10.3302
0.7472	-10.788
0.7473	-11.0626
0.7474	-12.2375
0.7475	-10.7727
0.7476	-12.0087
0.7477	-11.5967
0.7478	-10.5743
0.7479	-10.849
0.748	-12.1307
0.7481	-10.4675
0.7482	-11.6119
0.7483	-11.5967
0.7484	-11.2305
0.7485	-11.0779
0.7486	-12.4512
0.7487	-10.9863
0.7488	-11.5509
0.7489	-9.91821
0.749	-8.5144
0.7491	-10.8185
0.7492	-10.3607
0.7493	-12.7716
0.7494	-10.8948
0.7495	-11.0931
0.7496	-11.1847
0.7497	-11.3373
0.7498	-11.4136
0.7499	-12.4207
0.75	-11.8256
0.7501	-11.1694
0.7502	-11.8713
0.7503	-10.4523
0.7504	-12.5122
0.7505	-10.849
0.7506	-11.7645
0.7507	-11.8256
0.7508	-11.2762
0.7509	-10.8185
0.751	-11.1389
0.7511	-11.0779
0.7512	-11.8561
0.7513	-11.5051
0.7514	-11.2762
0.7515	-11.6577
0.7516	-9.90295
0.7517	-11.2305
0.7518	-10.9863
0.7519	-11.4136
0.752	-11.0321
0.7521	-9.67407
0.7522	-10.8185
0.7523	-11.673
0.7524	-11.4593
0.7525	-10.8795
0.7526	-11.1084
0.7527	-11.5051
0.7528	-12.2681
0.7529	-10.5286
0.753	-11.2915
0.7531	-11.3678
0.7532	-11.0321
0.7533	-10.6201
0.7534	-9.90295
0.7535	-8.04138
0.7536	-10.5896
0.7537	-11.1237
0.7538	-11.5814
0.7539	-11.9781
0.754	-10.498
0.7541	-11.3678
0.7542	-10.7727
0.7543	-12.3596
0.7544	-10.4218
0.7545	-9.91821
0.7546	-11.9171
0.7547	-5.88989
0.7548	-7.36999
0.7549	-10.1013
0.755	-11.2762
0.7551	-11.2152
0.7552	-11.0168
0.7553	-10.9558
0.7554	-11.4136
0.7555	-11.2152
0.7556	-11.322
0.7557	-11.0016
0.7558	-11.2457
0.7559	-11.5509
0.756	-10.2234
0.7561	-12.0087
0.7562	-12.2223
0.7563	-11.0321
0.7564	-10.0861
0.7565	-11.2305
0.7566	-11.4136
0.7567	-10.7727
0.7568	-11.9324
0.7569	-10.3149
0.757	-11.322
0.7571	-10.1471
0.7572	-11.673
0.7573	-9.52148
0.7574	-11.4593
0.7575	-11.5204
0.7576	-11.2
0.7577	-10.3455
0.7578	-11.261
0.7579	-11.795
0.758	-11.9019
0.7581	-12.2833
0.7582	-9.78088
0.7583	-11.1542
0.7584	-11.0474
0.7585	-9.76562
0.7586	-11.1237
0.7587	-10.4065
0.7588	-9.35364
0.7589	-11.4746
0.759	-11.2305
0.7591	-11.1237
0.7592	-12.558
0.7593	-11.2915
0.7594	-11.2305
0.7595	-11.5967
0.7596	-10.1624
0.7597	-12.1002
0.7598	-12.2375
0.7599	-9.94873
0.76	-12.1918
0.7601	-11.5204
0.7602	-10.9253
0.7603	-11.6272
0.7604	-12.2528
0.7605	-11.2152
0.7606	-6.65283
0.7607	-10.025
0.7608	-11.6577
0.7609	-11.7798
0.761	-10.849
0.7611	-11.3678
0.7612	-10.91
0.7613	-11.3525
0.7614	-10.5438
0.7615	-11.0474
0.7616	-7.79724
0.7617	-10.7574
0.7618	-11.6882
0.7619	-11.9019
0.762	-11.8256
0.7621	-10.1166
0.7622	-9.96399
0.7623	-11.0168
0.7624	-12.1155
0.7625	-10.1929
0.7626	-10.5743
0.7627	-10.6354
0.7628	-11.4593
0.7629	-12.1002
0.763	-10.5591
0.7631	-10.6659
0.7632	-11.5509
0.7633	-11.7493
0.7634	-10.3912
0.7635	-9.44519
0.7636	-10.9253
0.7637	-10.6049
0.7638	-11.2457
0.7639	-11.2762
0.764	-11.3678
0.7641	-10.9711
0.7642	-11.4136
0.7643	-11.1847
0.7644	-11.9324
0.7645	-11.3831
0.7646	-10.6964
0.7647	-11.2
0.7648	-10.3912
0.7649	-11.0016
0.765	-11.7187
0.7651	-11.2457
0.7652	-6.24084
0.7653	-5.56946
0.7654	-5.49316
0.7655	-5.11169
0.7656	-4.65393
0.7657	-8.86536
0.7658	-10.91
0.7659	-11.5967
0.766	-11.3373
0.7661	-10.2692
0.7662	-10.849
0.7663	-10.9863
0.7664	-12.1613
0.7665	-10.7269
0.7666	-11.2305
0.7667	-11.0931
0.7668	-11.5356
0.7669	-8.20923
0.767	-10.9863
0.7671	-9.18579
0.7672	-10.8643
0.7673	-10.1318
0.7674	-11.9324
0.7675	-11.2457
0.7676	-11.1084
0.7677	-11.7035
0.7678	-11.3831
0.7679	-12.619
0.768	-11.7798
0.7681	-11.6119
0.7682	-11.4441
0.7683	-11.0474
0.7684	-11.5051
0.7685	-12.8632
0.7686	-11.1389
0.7687	-9.76562
0.7688	-10.788
0.7689	-8.86536
0.769	-11.7035
0.7691	-10.2844
0.7692	-11.1084
0.7693	-10.1471
0.7694	-10.437
0.7695	-11.3068
0.7696	-9.50622
0.7697	-11.5356
0.7698	-11.4746
0.7699	-11.6577
0.77	-12.6495
0.7701	-10.5438
0.7702	-11.8866
0.7703	-11.9629
0.7704	-11.3525
0.7705	-10.6659
0.7706	-11.7798
0.7707	-11.3068
0.7708	-11.6272
0.7709	-10.5286
0.771	-10.1929
0.7711	-11.2457
0.7712	-11.8561
0.7713	-10.7269
0.7714	-10.4218
0.7715	-11.1389
0.7716	-10.6506
0.7717	-10.1624
0.7718	-11.3525
0.7719	-11.673
0.772	-10.6659
0.7721	-10.2081
0.7722	-10.8032
0.7723	-10.7727
0.7724	-10.8948
0.7725	-10.4675
0.7726	-11.3983
0.7727	-11.5051
0.7728	-10.6049
0.7729	-11.0931
0.773	-10.498
0.7731	-10.3455
0.7732	-12.4969
0.7733	-10.2234
0.7734	-11.7187
0.7735	-12.4664
0.7736	-11.4288
0.7737	-10.9406
0.7738	-11.6119
0.7739	-11.6119
0.774	-11.4288
0.7741	-11.7798
0.7742	-10.788
0.7743	-8.78906
0.7744	-10.9711
0.7745	-11.2305
0.7746	-11.1542
0.7747	-12.0087
0.7748	-10.8795
0.7749	-10.6049
0.775	-11.8713
0.7751	-11.1542
0.7752	-11.2915
0.7753	-11.1847
0.7754	-11.7035
0.7755	-11.3068
0.7756	-10.5438
0.7757	-11.2152
0.7758	-9.78088
0.7759	-12.2375
0.776	-10.1776
0.7761	-11.8866
0.7762	-10.2539
0.7763	-11.6882
0.7764	-11.9171
0.7765	-11.0626
0.7766	-12.207
0.7767	-10.3912
0.7768	-11.4746
0.7769	-12.4207
0.777	-9.62829
0.7771	-11.6577
0.7772	-10.6812
0.7773	-13.0615
0.7774	-10.5743
0.7775	-10.1624
0.7776	-11.3373
0.7777	-10.788
0.7778	-10.4218
0.7779	-11.5509
0.778	-10.7574
0.7781	-11.1542
0.7782	-8.3313
0.7783	-11.7187
0.7784	-11.3068
0.7785	-10.4065
0.7786	-10.2234
0.7787	-10.91
0.7788	-11.1694
0.7789	-11.2
0.779	-10.6506
0.7791	-12.1613
0.7792	-11.3373
0.7793	-10.5133
0.7794	-12.0087
0.7795	-12.3596
0.7796	-11.5356
0.7797	-11.7035
0.7798	-11.5356
0.7799	-11.7798
0.78	-13.2294
0.7801	-11.9934
0.7802	-11.1389
0.7803	-12.8479
0.7804	-11.0474
0.7805	-10.1013
0.7806	-11.2305
0.7807	-9.47571
0.7808	-10.2539
0.7809	-10.6964
0.781	-7.26318
0.7811	-9.93347
0.7812	-10.7269
0.7813	-11.9324
0.7814	-9.46045
0.7815	-10.6506
0.7816	-10.6201
0.7817	-10.4828
0.7818	-9.93347
0.7819	-11.2457
0.782	-10.3912
0.7821	-11.2915
0.7822	-9.3689
0.7823	-11.5051
0.7824	-11.2305
0.7825	-10.3455
0.7826	-11.2915
0.7827	-11.9476
0.7828	-10.7117
0.7829	-10.6964
0.783	-11.9781
0.7831	-11.8408
0.7832	-11.1389
0.7833	-12.146
0.7834	-11.0474
0.7835	-11.1084
0.7836	-9.53674
0.7837	-10.7727
0.7838	-10.6354
0.7839	-10.9711
0.784	-10.4828
0.7841	-10.8643
0.7842	-11.2
0.7843	-10.7727
0.7844	-10.7727
0.7845	-10.6506
0.7846	-11.0321
0.7847	-11.9019
0.7848	-11.0626
0.7849	-11.6272
0.785	-10.7574
0.7851	-11.0931
0.7852	-11.3525
0.7853	-10.0403
0.7854	-11.2
0.7855	-11.1694
0.7856	-11.0931
0.7857	-11.5662
0.7858	-5.87463
0.7859	-10.8795
0.786	-9.20105
0.7861	-9.41467
0.7862	-11.3831
0.7863	-11.7798
0.7864	-11.0931
0.7865	-11.1847
0.7866	-11.0931
0.7867	-10.7422
0.7868	-11.3525
0.7869	-11.9324
0.787	-11.4746
0.7871	-11.9324
0.7872	-11.3068
0.7873	-11.3983
0.7874	-11.1237
0.7875	-12.0087
0.7876	-11.1237
0.7877	-11.1389
0.7878	-12.0697
0.7879	-11.4746
0.788	-10.5743
0.7881	-11.5814
0.7882	-11.4899
0.7883	-10.7422
0.7884	-11.1389
0.7885	-11.8713
0.7886	-11.4288
0.7887	-11.7493
0.7888	-12.207
0.7889	-10.437
0.789	-10.5896
0.7891	-10.4828
0.7892	-9.65881
0.7893	-11.0474
0.7894	-11.9781
0.7895	-11.7493
0.7896	-12.2223
0.7897	-10.6964
0.7898	-12.3749
0.7899	-11.0779
0.79	-11.2152
0.7901	-11.9171
0.7902	-11.8103
0.7903	-11.7645
0.7904	-11.8103
0.7905	-10.6812
0.7906	-11.2457
0.7907	-11.795
0.7908	-10.5286
0.7909	-9.87244
0.791	-12.3138
0.7911	-12.085
0.7912	-10.376
0.7913	-10.4523
0.7914	-10.9558
0.7915	-11.3831
0.7916	-10.6659
0.7917	-10.1471
0.7918	-11.261
0.7919	-10.6049
0.792	-11.0321
0.7921	-10.7269
0.7922	-10.1318
0.7923	-10.5591
0.7924	-8.92639
0.7925	-7.90405
0.7926	-11.2762
0.7927	-10.1166
0.7928	-9.47571
0.7929	-11.9171
0.793	-11.9019
0.7931	-11.4136
0.7932	-10.8643
0.7933	-10.7422
0.7934	-10.6354
0.7935	-10.6354
0.7936	-11.2305
0.7937	-11.3678
0.7938	-10.7422
0.7939	-10.6964
0.794	-10.9558
0.7941	-10.8643
0.7942	-11.4288
0.7943	-11.7798
0.7944	-10.2386
0.7945	-10.8948
0.7946	-11.8256
0.7947	-11.4899
0.7948	-10.8185
0.7949	-11.6425
0.795	-10.2386
0.7951	-7.38525
0.7952	-10.8337
0.7953	-10.2844
0.7954	-11.1084
0.7955	-11.9171
0.7956	-11.3373
0.7957	-12.6038
0.7958	-11.5204
0.7959	-9.67407
0.796	-6.65283
0.7961	-9.21631
0.7962	-11.3068
0.7963	-10.6964
0.7964	-11.6425
0.7965	-12.1307
0.7966	-10.7574
0.7967	-12.0239
0.7968	-11.3831
0.7969	-11.2762
0.797	-4.89807
0.7971	-9.15527
0.7972	-10.91
0.7973	-11.6119
0.7974	-11.3525
0.7975	-11.1694
0.7976	-11.9019
0.7977	-6.05774
0.7978	-5.02014
0.7979	-9.56726
0.798	-11.9019
0.7981	-9.87244
0.7982	-10.8948
0.7983	-11.5662
0.7984	-11.4288
0.7985	-11.7798
0.7986	-11.5051
0.7987	-11.4746
0.7988	-8.10242
0.7989	-11.734
0.799	-11.9934
0.7991	-11.0779
0.7992	-11.0321
0.7993	-10.4828
0.7994	-11.6119
0.7995	-11.8256
0.7996	-10.8795
0.7997	-11.7035
0.7998	-11.2305
0.7999	-10.9558
0.8	-11.8103
0.8001	-9.96399
0.8002	-10.7574
0.8003	-12.1002
0.8004	-11.2915
0.8005	-11.9781
0.8006	-12.6038
0.8007	-11.3525
0.8008	-12.3138
0.8009	-11.734
0.801	-11.2305
0.8011	-11.9019
0.8012	-9.06372
0.8013	-12.0544
0.8014	-10.437
0.8015	-11.0168
0.8016	-10.7422
0.8017	-12.4817
0.8018	-11.9629
0.8019	-11.0626
0.802	-11.2762
0.8021	-10.6201
0.8022	-11.2762
0.8023	-10.7574
0.8024	-10.8643
0.8025	-11.0931
0.8026	-10.8643
0.8027	-11.2305
0.8028	-12.1918
0.8029	-10.5896
0.803	-11.0931
0.8031	-10.8185
0.8032	-10.5591
0.8033	-11.1389
0.8034	-11.6272
0.8035	-11.2915
0.8036	-10.849
0.8037	-10.6354
0.8038	-10.7727
0.8039	-10.9253
0.804	-10.5743
0.8041	-12.1155
0.8042	-6.63757
0.8043	-5.50842
0.8044	-6.28662
0.8045	-9.23157
0.8046	-9.46045
0.8047	-11.9476
0.8048	-11.4899
0.8049	-10.3149
0.805	-11.7187
0.8051	-10.6354
0.8052	-6.66809
0.8053	-9.64355
0.8054	-10.5286
0.8055	-11.4288
0.8056	-10.5438
0.8057	-10.5438
0.8058	-12.0087
0.8059	-10.5591
0.806	-11.5051
0.8061	-10.5438
0.8062	-11.1694
0.8063	-11.5814
0.8064	-9.84192
0.8065	-10.5286
0.8066	-11.2
0.8067	-11.261
0.8068	-11.2
0.8069	-10.376
0.807	-11.0321
0.8071	-11.5662
0.8072	-11.4288
0.8073	-10.4828
0.8074	-11.1694
0.8075	-11.9019
0.8076	-11.5051
0.8077	-11.3831
0.8078	-11.8713
0.8079	-10.9253
0.808	-12.207
0.8081	-10.849
0.8082	-10.7422
0.8083	-10.2234
0.8084	-11.2762
0.8085	-12.558
0.8086	-11.3831
0.8087	-10.5438
0.8088	-11.1847
0.8089	-10.2844
0.809	-11.4746
0.8091	-12.5427
0.8092	-10.6049
0.8093	-10.91
0.8094	-12.3138
0.8095	-11.4288
0.8096	-11.0779
0.8097	-12.2986
0.8098	-10.9711
0.8099	-11.261
0.81	-11.0626
0.8101	-11.7187
0.8102	-11.3831
0.8103	-11.2
0.8104	-11.9476
0.8105	-10.4523
0.8106	-12.0697
0.8107	-11.2305
0.8108	-12.6495
0.8109	-11.9781
0.811	-10.8643
0.8111	-10.8795
0.8112	-10.4675
0.8113	-10.8948
0.8114	-12.2375
0.8115	-11.8713
0.8116	-10.3607
0.8117	-11.1694
0.8118	-10.3912
0.8119	-11.5509
0.812	-10.8643
0.8121	-10.6964
0.8122	-10.0708
0.8123	-10.8643
0.8124	-11.9781
0.8125	-11.0474
0.8126	-10.4828
0.8127	-11.5051
0.8128	-11.734
0.8129	-11.1237
0.813	-11.2305
0.8131	-11.2762
0.8132	-11.2915
0.8133	-11.1694
0.8134	-11.1084
0.8135	-9.39941
0.8136	-10.437
0.8137	-10.0555
0.8138	-11.3678
0.8139	-10.4218
0.814	-10.8795
0.8141	-10.2539
0.8142	-10.6506
0.8143	-11.5814
0.8144	-11.795
0.8145	-10.9711
0.8146	-10.7269
0.8147	-11.1542
0.8148	-13.0005
0.8149	-9.62829
0.815	-11.0626
0.8151	-10.7727
0.8152	-11.5814
0.8153	-11.8561
0.8154	-10.1929
0.8155	-10.9253
0.8156	-11.1847
0.8157	-11.0626
0.8158	-11.2762
0.8159	-10.8032
0.816	-11.8713
0.8161	-10.5896
0.8162	-11.2915
0.8163	-11.7645
0.8164	-11.1237
0.8165	-10.9558
0.8166	-11.2305
0.8167	-11.2457
0.8168	-11.8103
0.8169	-11.2
0.817	-10.437
0.8171	-11.4288
0.8172	-10.7574
0.8173	-11.6272
0.8174	-11.8561
0.8175	-10.8337
0.8176	-10.2692
0.8177	-9.87244
0.8178	-10.4065
0.8179	-11.3678
0.818	-10.5591
0.8181	-10.8795
0.8182	-11.9171
0.8183	-11.6425
0.8184	-11.2152
0.8185	-11.9171
0.8186	-12.4512
0.8187	-10.8185
0.8188	-12.2833
0.8189	-11.3373
0.819	-11.2915
0.8191	-11.4136
0.8192	-11.3525
0.8193	-11.2152
0.8194	-11.5356
0.8195	-11.8103
0.8196	-10.5133
0.8197	-10.7269
0.8198	-11.2305
0.8199	-11.4746
0.82	-11.9781
0.8201	-11.2457
0.8202	-10.5438
0.8203	-11.8256
0.8204	-11.2305
0.8205	-11.3525
0.8206	-11.8408
0.8207	-11.3525
0.8208	-10.8185
0.8209	-7.21741
0.821	-4.85229
0.8211	-8.08716
0.8212	-10.5286
0.8213	-10.9406
0.8214	-11.6119
0.8215	-11.6119
0.8216	-10.8185
0.8217	-10.8795
0.8218	-10.3455
0.8219	-9.71985
0.822	-10.8643
0.8221	-9.50622
0.8222	-10.8795
0.8223	-10.8185
0.8224	-11.1237
0.8225	-11.4899
0.8226	-10.498
0.8227	-9.62829
0.8228	-11.0779
0.8229	-10.3149
0.823	-12.085
0.8231	-12.0544
0.8232	-10.2386
0.8233	-10.9558
0.8234	-11.795
0.8235	-11.8713
0.8236	-10.3149
0.8237	-10.376
0.8238	-10.849
0.8239	-11.2457
0.824	-11.5814
0.8241	-11.1389
0.8242	-11.2152
0.8243	-11.5814
0.8244	-10.1166
0.8245	-11.795
0.8246	-11.2915
0.8247	-11.2305
0.8248	-10.5438
0.8249	-11.4441
0.825	-10.5743
0.8251	-11.5051
0.8252	-9.67407
0.8253	-11.1389
0.8254	-11.2457
0.8255	-11.3068
0.8256	-10.1166
0.8257	-11.261
0.8258	-10.849
0.8259	-12.8326
0.826	-10.7269
0.8261	-11.8713
0.8262	-10.2997
0.8263	-11.2457
0.8264	-12.4054
0.8265	-11.2762
0.8266	-11.6272
0.8267	-11.0931
0.8268	-11.2915
0.8269	-10.5133
0.827	-11.9019
0.8271	-11.0931
0.8272	-11.3068
0.8273	-10.3912
0.8274	-12.1002
0.8275	-12.8021
0.8276	-12.3444
0.8277	-11.322
0.8278	-10.8795
0.8279	-11.5509
0.828	-11.4136
0.8281	-12.1613
0.8282	-10.8032
0.8283	-11.5662
0.8284	-11.3831
0.8285	-12.1155
0.8286	-11.7798
0.8287	-10.1624
0.8288	-11.7493
0.8289	-11.0016
0.829	-11.3983
0.8291	-10.4523
0.8292	-11.0779
0.8293	-11.0931
0.8294	-11.7035
0.8295	-12.2681
0.8296	-11.0016
0.8297	-12.5427
0.8298	-12.3138
0.8299	-11.3373
0.83	-11.3525
0.8301	-10.6659
0.8302	-10.788
0.8303	-10.4523
0.8304	-11.3068
0.8305	-10.9406
0.8306	-9.93347
0.8307	-9.61304
0.8308	-11.4746
0.8309	-11.0321
0.831	-10.5438
0.8311	-11.2915
0.8312	-9.93347
0.8313	-10.7422
0.8314	-11.0779
0.8315	-11.9171
0.8316	-12.207
0.8317	-10.2081
0.8318	-10.3302
0.8319	-11.8408
0.832	-10.8185
0.8321	-11.261
0.8322	-9.49097
0.8323	-10.8948
0.8324	-11.8408
0.8325	-10.2386
0.8326	-11.9324
0.8327	-11.0168
0.8328	-11.261
0.8329	-10.91
0.833	-10.8948
0.8331	-11.0474
0.8332	-10.4828
0.8333	-12.1613
0.8334	-11.4899
0.8335	-11.0474
0.8336	-11.8713
0.8337	-11.8561
0.8338	-11.0779
0.8339	-13.1531
0.834	-11.2152
0.8341	-10.91
0.8342	-12.6343
0.8343	-12.2986
0.8344	-11.322
0.8345	-10.498
0.8346	-11.6882
0.8347	-10.9711
0.8348	-11.6272
0.8349	-10.5438
0.835	-11.4899
0.8351	-11.8561
0.8352	-10.025
0.8353	-7.67517
0.8354	-6.24084
0.8355	-11.6425
0.8356	-11.2305
0.8357	-11.4441
0.8358	-10.6812
0.8359	-11.8713
0.836	-11.8866
0.8361	-10.8032
0.8362	-11.4593
0.8363	-10.4523
0.8364	-11.0321
0.8365	-12.6648
0.8366	-9.20105
0.8367	-11.6119
0.8368	-11.8866
0.8369	-10.9711
0.837	-11.7035
0.8371	-11.9629
0.8372	-10.6049
0.8373	-9.49097
0.8374	-10.8337
0.8375	-11.5051
0.8376	-11.3983
0.8377	-11.5662
0.8378	-8.86536
0.8379	-11.5051
0.838	-12.4664
0.8381	-11.4593
0.8382	-11.9934
0.8383	-10.7574
0.8384	-11.9781
0.8385	-12.085
0.8386	-12.0239
0.8387	-11.7035
0.8388	-10.3912
0.8389	-12.0697
0.839	-11.3678
0.8391	-11.9171
0.8392	-11.1694
0.8393	-10.2844
0.8394	-12.085
0.8395	-10.5286
0.8396	-11.2915
0.8397	-13.2141
0.8398	-10.2081
0.8399	-12.2528
0.84	-8.78906
0.8401	-11.3983
0.8402	-11.4288
0.8403	-10.5438
0.8404	-12.1155
0.8405	-11.0931
0.8406	-11.7798
0.8407	-12.1918
0.8408	-12.2681
0.8409	-10.849
0.841	-7.14111
0.8411	-12.5885
0.8412	-9.09424
0.8413	-11.2
0.8414	-11.6577
0.8415	-10.8948
0.8416	-11.322
0.8417	-11.1847
0.8418	-10.7117
0.8419	-11.4441
0.842	-11.5662
0.8421	-11.1084
0.8422	-11.9629
0.8423	-11.7187
0.8424	-10.8185
0.8425	-11.3678
0.8426	-10.8032
0.8427	-11.2305
0.8428	-11.8561
0.8429	-10.8337
0.843	-11.673
0.8431	-9.44519
0.8432	-11.8256
0.8433	-11.9934
0.8434	-11.4899
0.8435	-10.0403
0.8436	-10.7422
0.8437	-11.6272
0.8438	-10.8643
0.8439	-10.9558
0.844	-10.9711
0.8441	-10.7422
0.8442	-12.4969
0.8443	-11.1542
0.8444	-10.8185
0.8445	-10.9863
0.8446	-9.59778
0.8447	-10.8948
0.8448	-11.5967
0.8449	-11.5814
0.845	-11.4288
0.8451	-10.2997
0.8452	-11.1847
0.8453	-10.3302
0.8454	-11.4441
0.8455	-10.498
0.8456	-11.261
0.8457	-10.7269
0.8458	-11.5204
0.8459	-12.9852
0.846	-11.3983
0.8461	-11.6882
0.8462	-10.1776
0.8463	-10.5438
0.8464	-10.9558
0.8465	-11.4288
0.8466	-12.1307
0.8467	-10.8795
0.8468	-11.4746
0.8469	-11.3068
0.847	-9.75037
0.8471	-11.2915
0.8472	-10.7574
0.8473	-12.0544
0.8474	-11.8103
0.8475	-11.3373
0.8476	-11.6577
0.8477	-10.7269
0.8478	-11.6882
0.8479	-11.9324
0.848	-10.9711
0.8481	-11.4288
0.8482	-13.0463
0.8483	-11.2152
0.8484	-11.0779
0.8485	-11.5967
0.8486	-11.795
0.8487	-11.3831
0.8488	-11.3068
0.8489	-11.9629
0.849	-11.4441
0.8491	-11.6577
0.8492	-12.2986
0.8493	-12.0392
0.8494	-11.1847
0.8495	-10.0403
0.8496	-11.9781
0.8497	-11.0779
0.8498	-11.795
0.8499	-12.146
0.85	-11.4136
0.8501	-12.1918
0.8502	-11.8408
0.8503	-10.6506
0.8504	-12.1918
0.8505	-11.4288
0.8506	-12.0239
0.8507	-10.3302
0.8508	-10.9711
0.8509	-12.3138
0.851	-11.8256
0.8511	-11.8103
0.8512	-11.7035
0.8513	-10.5591
0.8514	-11.4899
0.8515	-12.7106
0.8516	-11.5204
0.8517	-11.5356
0.8518	-10.8337
0.8519	-11.9629
0.852	-11.1237
0.8521	-10.7422
0.8522	-11.7493
0.8523	-11.0016
0.8524	-9.8114
0.8525	-5.61523
0.8526	-11.5662
0.8527	-11.4136
0.8528	-10.5743
0.8529	-10.5743
0.853	-10.1318
0.8531	-11.0016
0.8532	-11.7645
0.8533	-11.1237
0.8534	-10.6049
0.8535	-11.2305
0.8536	-11.7035
0.8537	-11.1237
0.8538	-12.0392
0.8539	-12.207
0.854	-10.8795
0.8541	-11.0931
0.8542	-11.673
0.8543	-12.085
0.8544	-10.8185
0.8545	-11.3373
0.8546	-11.5051
0.8547	-11.5967
0.8548	-11.9934
0.8549	-11.4746
0.855	-11.4899
0.8551	-11.9629
0.8552	-11.5662
0.8553	-11.9171
0.8554	-9.97925
0.8555	-11.6272
0.8556	-11.8408
0.8557	-11.0626
0.8558	-10.788
0.8559	-9.62829
0.856	-9.0332
0.8561	-10.3302
0.8562	-12.1307
0.8563	-11.0626
0.8564	-11.8256
0.8565	-12.0697
0.8566	-10.498
0.8567	-11.5662
0.8568	-11.4441
0.8569	-10.4523
0.857	-11.3373
0.8571	-11.6425
0.8572	-12.1613
0.8573	-10.6506
0.8574	-10.4523
0.8575	-11.261
0.8576	-11.0168
0.8577	-6.24084
0.8578	-5.2948
0.8579	-10.8948
0.858	-11.322
0.8581	-11.1694
0.8582	-11.795
0.8583	-11.673
0.8584	-10.4065
0.8585	-12.0392
0.8586	-11.3831
0.8587	-11.9476
0.8588	-10.7574
0.8589	-12.085
0.859	-10.9558
0.8591	-12.1307
0.8592	-10.788
0.8593	-10.6659
0.8594	-10.9558
0.8595	-11.6425
0.8596	-11.6577
0.8597	-10.9253
0.8598	-11.8713
0.8599	-11.9019
0.86	-11.795
0.8601	-11.3983
0.8602	-10.8795
0.8603	-10.6659
0.8604	-11.2915
0.8605	-11.6425
0.8606	-10.3607
0.8607	-11.3831
0.8608	-12.2223
0.8609	-10.849
0.861	-12.4817
0.8611	-11.5814
0.8612	-10.6506
0.8613	-10.7269
0.8614	-11.2152
0.8615	-13.0157
0.8616	-11.2305
0.8617	-10.7574
0.8618	-12.3138
0.8619	-11.0931
0.862	-11.7035
0.8621	-11.0931
0.8622	-10.4523
0.8623	-10.8337
0.8624	-8.31604
0.8625	-11.1389
0.8626	-10.5438
0.8627	-11.6882
0.8628	-11.4288
0.8629	-11.0016
0.863	-10.0555
0.8631	-11.4288
0.8632	-11.4288
0.8633	-11.9019
0.8634	-12.146
0.8635	-10.1166
0.8636	-9.39941
0.8637	-11.4746
0.8638	-11.1237
0.8639	-11.9629
0.864	-10.7422
0.8641	-11.4441
0.8642	-10.6964
0.8643	-11.4441
0.8644	-10.5286
0.8645	-11.4593
0.8646	-10.4218
0.8647	-10.91
0.8648	-10.6812
0.8649	-11.9629
0.865	-10.9253
0.8651	-10.9253
0.8652	-11.6272
0.8653	-11.1237
0.8654	-10.8795
0.8655	-10.1929
0.8656	-11.8713
0.8657	-11.2
0.8658	-11.5509
0.8659	-9.14001
0.866	-11.9019
0.8661	-11.8103
0.8662	-12.9242
0.8663	-11.1542
0.8664	-12.207
0.8665	-10.7269
0.8666	-11.6425
0.8667	-11.3525
0.8668	-12.5275
0.8669	-10.376
0.867	-12.3749
0.8671	-11.5356
0.8672	-11.3525
0.8673	-10.9558
0.8674	-11.4746
0.8675	-10.3912
0.8676	-11.673
0.8677	-10.8032
0.8678	-11.5967
0.8679	-10.8337
0.868	-11.4899
0.8681	-11.8256
0.8682	-10.8948
0.8683	-10.7269
0.8684	-12.1155
0.8685	-10.498
0.8686	-12.1613
0.8687	-11.5967
0.8688	-11.5662
0.8689	-10.6506
0.869	-12.2375
0.8691	-10.7574
0.8692	-11.5814
0.8693	-11.6882
0.8694	-11.1237
0.8695	-11.673
0.8696	-11.8713
0.8697	-10.7727
0.8698	-10.0098
0.8699	-11.5356
0.87	-11.2915
0.8701	-10.7574
0.8702	-10.788
0.8703	-12.8021
0.8704	-12.207
0.8705	-11.3525
0.8706	-10.6659
0.8707	-12.6801
0.8708	-11.0779
0.8709	-12.2223
0.871	-11.6577
0.8711	-11.2305
0.8712	-11.3678
0.8713	-11.261
0.8714	-11.9171
0.8715	-11.6882
0.8716	-10.6659
0.8717	-9.79614
0.8718	-11.6882
0.8719	-11.8408
0.872	-12.207
0.8721	-10.7269
0.8722	-10.3607
0.8723	-11.1847
0.8724	-10.91
0.8725	-11.0931
0.8726	-12.4664
0.8727	-12.4817
0.8728	-10.6964
0.8729	-11.8103
0.873	-11.322
0.8731	-10.91
0.8732	-12.2375
0.8733	-11.1694
0.8734	-12.207
0.8735	-8.255
0.8736	-10.5133
0.8737	-10.1166
0.8738	-11.5967
0.8739	-12.2223
0.874	-11.1542
0.8741	-11.4288
0.8742	-12.0392
0.8743	-11.5967
0.8744	-11.4288
0.8745	-10.2386
0.8746	-10.3455
0.8747	-11.7187
0.8748	-10.376
0.8749	-10.2081
0.875	-10.4218
0.8751	-12.146
0.8752	-11.4441
0.8753	-10.9253
0.8754	-12.1002
0.8755	-11.1084
0.8756	-11.4441
0.8757	-12.085
0.8758	-10.0708
0.8759	-10.7727
0.876	-12.4359
0.8761	-9.18579
0.8762	-11.3678
0.8763	-11.3525
0.8764	-10.4675
0.8765	-10.8795
0.8766	-10.3912
0.8767	-11.9781
0.8768	-11.2305
0.8769	-11.9934
0.877	-12.0087
0.8771	-12.1002
0.8772	-11.5051
0.8773	-9.82666
0.8774	-11.5204
0.8775	-11.1389
0.8776	-11.5509
0.8777	-11.9324
0.8778	-11.0168
0.8779	-11.7493
0.878	-11.4746
0.8781	-12.2833
0.8782	-10.6049
0.8783	-11.7187
0.8784	-12.5732
0.8785	-11.2305
0.8786	-10.8032
0.8787	-11.9934
0.8788	-11.1237
0.8789	-12.4054
0.879	-10.91
0.8791	-11.9629
0.8792	-10.8643
0.8793	-7.53784
0.8794	-11.1694
0.8795	-11.5814
0.8796	-9.99451
0.8797	-12.146
0.8798	-11.9324
0.8799	-10.2539
0.88	-8.98743
0.8801	-11.3678
0.8802	-5.58472
0.8803	-5.53894
0.8804	-8.52966
0.8805	-12.1918
0.8806	-11.795
0.8807	-12.4207
0.8808	-10.376
0.8809	-11.5204
0.881	-11.7035
0.8811	-10.8337
0.8812	-11.5204
0.8813	-12.3749
0.8814	-11.1847
0.8815	-10.7422
0.8816	-12.1918
0.8817	-10.2997
0.8818	-9.97925
0.8819	-10.2234
0.882	-10.5743
0.8821	-11.4288
0.8822	-10.8185
0.8823	-11.0016
0.8824	-11.7035
0.8825	-11.8713
0.8826	-11.795
0.8827	-10.8643
0.8828	-11.4593
0.8829	-11.3831
0.883	-11.5356
0.8831	-11.6577
0.8832	-10.2844
0.8833	-11.7798
0.8834	-12.2528
0.8835	-10.7574
0.8836	-10.0861
0.8837	-11.7645
0.8838	-11.6272
0.8839	-10.6049
0.884	-10.7422
0.8841	-9.44519
0.8842	-11.2305
0.8843	-10.2997
0.8844	-12.0239
0.8845	-10.9711
0.8846	-11.2457
0.8847	-11.0016
0.8848	-11.1084
0.8849	-10.7574
0.885	-10.91
0.8851	-11.673
0.8852	-11.9629
0.8853	-11.8561
0.8854	-10.6659
0.8855	-10.4065
0.8856	-10.5286
0.8857	-12.0239
0.8858	-11.5204
0.8859	-11.7645
0.886	-10.8337
0.8861	-10.7269
0.8862	-10.9406
0.8863	-12.1002
0.8864	-8.89587
0.8865	-10.3912
0.8866	-11.795
0.8867	-10.8948
0.8868	-10.3149
0.8869	-11.4288
0.887	-10.7117
0.8871	-12.5275
0.8872	-10.8948
0.8873	-11.5662
0.8874	-9.52148
0.8875	-12.1918
0.8876	-11.0626
0.8877	-12.0239
0.8878	-10.7269
0.8879	-11.8561
0.888	-10.7269
0.8881	-11.0016
0.8882	-11.7035
0.8883	-11.734
0.8884	-10.2692
0.8885	-11.322
0.8886	-10.7117
0.8887	-11.4441
0.8888	-12.3444
0.8889	-10.9406
0.889	-12.97
0.8891	-11.6119
0.8892	-11.6577
0.8893	-12.2528
0.8894	-10.3912
0.8895	-11.4746
0.8896	-10.2386
0.8897	-10.1318
0.8898	-10.1013
0.8899	-11.4441
0.89	-10.2386
0.8901	-11.2915
0.8902	-10.6659
0.8903	-11.5509
0.8904	-10.6964
0.8905	-10.5133
0.8906	-12.9547
0.8907	-12.7869
0.8908	-10.1776
0.8909	-11.7645
0.891	-11.1847
0.8911	-10.91
0.8912	-12.2528
0.8913	-10.9863
0.8914	-11.9324
0.8915	-12.3444
0.8916	-10.8185
0.8917	-10.1013
0.8918	-10.7422
0.8919	-11.2
0.892	-11.673
0.8921	-11.6425
0.8922	-11.6425
0.8923	-10.3607
0.8924	-11.0168
0.8925	-10.1471
0.8926	-11.3678
0.8927	-11.6882
0.8928	-9.99451
0.8929	-10.4523
0.893	-11.3068
0.8931	-10.8643
0.8932	-11.734
0.8933	-11.3068
0.8934	-11.4593
0.8935	-11.795
0.8936	-11.3525
0.8937	-11.6119
0.8938	-9.70459
0.8939	-9.84192
0.894	-11.5662
0.8941	-11.3678
0.8942	-12.0392
0.8943	-11.9781
0.8944	-11.795
0.8945	-11.2305
0.8946	-10.5286
0.8947	-11.9019
0.8948	-11.3068
0.8949	-10.7117
0.895	-10.2081
0.8951	-11.1847
0.8952	-10.2997
0.8953	-11.4136
0.8954	-10.9863
0.8955	-10.5133
0.8956	-11.6577
0.8957	-10.6964
0.8958	-8.81958
0.8959	-12.0239
0.896	-10.3455
0.8961	-11.2
0.8962	-11.5356
0.8963	-10.8185
0.8964	-11.673
0.8965	-11.1694
0.8966	-11.7493
0.8967	-10.5438
0.8968	-10.6812
0.8969	-10.7269
0.897	-10.1929
0.8971	-12.2223
0.8972	-10.5896
0.8973	-12.3596
0.8974	-10.8185
0.8975	-9.73511
0.8976	-11.2762
0.8977	-11.4746
0.8978	-11.2152
0.8979	-11.4593
0.898	-11.0016
0.8981	-11.9476
0.8982	-11.3831
0.8983	-11.0321
0.8984	-11.5662
0.8985	-12.1765
0.8986	-10.2692
0.8987	-11.9019
0.8988	-10.5438
0.8989	-10.6506
0.899	-9.39941
0.8991	-9.73511
0.8992	-11.7187
0.8993	-11.0016
0.8994	-11.8866
0.8995	-11.1084
0.8996	-12.5427
0.8997	-12.1613
0.8998	-11.5662
0.8999	-12.6343
0.9	-11.7493
0.9001	-11.9629
0.9002	-10.7574
0.9003	-11.2305
0.9004	-11.6272
0.9005	-11.4593
0.9006	-11.9629
0.9007	-11.1847
0.9008	-11.1237
0.9009	-11.6425
0.901	-12.1307
0.9011	-11.1237
0.9012	-11.9324
0.9013	-12.085
0.9014	-11.3068
0.9015	-11.4288
0.9016	-11.9781
0.9017	-10.437
0.9018	-11.4288
0.9019	-11.3831
0.902	-11.7493
0.9021	-11.4288
0.9022	-9.47571
0.9023	-10.7574
0.9024	-10.5133
0.9025	-8.40759
0.9026	-11.3678
0.9027	-11.7798
0.9028	-10.6659
0.9029	-11.0474
0.903	-10.788
0.9031	-11.6882
0.9032	-12.146
0.9033	-9.62829
0.9034	-10.6964
0.9035	-10.9558
0.9036	-7.9956
0.9037	-11.6119
0.9038	-11.1847
0.9039	-11.673
0.904	-11.5204
0.9041	-10.4523
0.9042	-10.6812
0.9043	-11.7035
0.9044	-10.4675
0.9045	-11.1847
0.9046	-10.6049
0.9047	-12.3901
0.9048	-10.2997
0.9049	-11.1694
0.905	-13.855
0.9051	-11.4136
0.9052	-11.7645
0.9053	-11.795
0.9054	-11.3068
0.9055	-11.8866
0.9056	-10.4218
0.9057	-10.2844
0.9058	-7.2937
0.9059	-4.98962
0.906	-4.86755
0.9061	-5.64575
0.9062	-5.46265
0.9063	-4.69971
0.9064	-4.98962
0.9065	-5.23376
0.9066	-5.43213
0.9067	-4.80652
0.9068	-4.66919
0.9069	-5.08118
0.907	-5.41687
0.9071	-4.5929
0.9072	-5.56946
0.9073	-4.91333
0.9074	-5.63049
0.9075	-4.60815
0.9076	-5.40161
0.9077	-5.64575
0.9078	-3.37219
0.9079	-5.7373
0.908	-3.82996
0.9081	-4.50134
0.9082	-5.35583
0.9083	-5.37109
0.9084	-5.2948
0.9085	-5.08118
0.9086	-5.23376
0.9087	-5.93567
0.9088	-5.32532
0.9089	-4.82178
0.909	-4.98962
0.9091	-5.17273
0.9092	-5.72205
0.9093	-6.88171
0.9094	-4.85229
0.9095	-5.20325
0.9096	-4.69971
0.9097	-4.11987
0.9098	-5.38635
0.9099	-4.2572
0.91	-6.88171
0.9101	-6.27136
0.9102	-6.02722
0.9103	-3.8147
0.9104	-5.87463
0.9105	-5.43213
0.9106	-4.74548
0.9107	-5.63049
0.9108	-5.12695
0.9109	-5.37109
0.911	-5.05066
0.9111	-5.92041
0.9112	-10.6964
0.9113	-11.3068
0.9114	-11.3831
0.9115	-11.3983
0.9116	-11.9171
0.9117	-12.0392
0.9118	-10.849
0.9119	-11.5356
0.912	-10.8643
0.9121	-10.376
0.9122	-11.1847
0.9123	-12.4359
0.9124	-5.70679
0.9125	-10.91
0.9126	-11.0779
0.9127	-10.6964
0.9128	-11.795
0.9129	-12.0239
0.913	-11.2
0.9131	-10.9253
0.9132	-11.8713
0.9133	-10.1166
0.9134	-11.4441
0.9135	-11.4288
0.9136	-10.8185
0.9137	-10.6812
0.9138	-10.9711
0.9139	-11.9781
0.914	-11.2
0.9141	-11.0779
0.9142	-10.2997
0.9143	-11.3525
0.9144	-12.1307
0.9145	-11.3373
0.9146	-11.6425
0.9147	-11.0931
0.9148	-10.6659
0.9149	-11.6119
0.915	-11.3831
0.9151	-11.3983
0.9152	-11.2152
0.9153	-11.6425
0.9154	-11.0016
0.9155	-11.0016
0.9156	-11.2762
0.9157	-11.5509
0.9158	-11.8713
0.9159	-11.1542
0.916	-10.7269
0.9161	-11.8103
0.9162	-10.437
0.9163	-11.4441
0.9164	-11.7798
0.9165	-11.0931
0.9166	-10.9558
0.9167	-11.8713
0.9168	-10.3607
0.9169	-11.5509
0.917	-12.0544
0.9171	-11.1237
0.9172	-8.80432
0.9173	-6.53076
0.9174	-10.8948
0.9175	-11.7493
0.9176	-11.261
0.9177	-11.4593
0.9178	-11.3983
0.9179	-11.5509
0.918	-10.3607
0.9181	-12.0087
0.9182	-11.0474
0.9183	-10.5438
0.9184	-11.261
0.9185	-10.2997
0.9186	-10.849
0.9187	-10.2234
0.9188	-11.4441
0.9189	-11.795
0.919	-10.7574
0.9191	-8.98743
0.9192	-12.4512
0.9193	-11.1847
0.9194	-10.4218
0.9195	-11.6425
0.9196	-11.1084
0.9197	-11.4593
0.9198	-11.0474
0.9199	-10.2692
0.92	-11.1542
0.9201	-10.8337
0.9202	-11.3983
0.9203	-11.9629
0.9204	-9.39941
0.9205	-11.2152
0.9206	-11.2457
0.9207	-11.9629
0.9208	-10.3149
0.9209	-12.5427
0.921	-10.3455
0.9211	-11.7187
0.9212	-10.1776
0.9213	-12.3444
0.9214	-10.376
0.9215	-10.1471
0.9216	-9.88769
0.9217	-10.437
0.9218	-12.1765
0.9219	-10.6049
0.922	-10.0098
0.9221	-10.2081
0.9222	-11.0168
0.9223	-12.085
0.9224	-10.2539
0.9225	-11.2305
0.9226	-12.6495
0.9227	-11.6119
0.9228	-12.2681
0.9229	-11.322
0.923	-11.5662
0.9231	-11.261
0.9232	-11.2305
0.9233	-11.1847
0.9234	-10.849
0.9235	-5.98144
0.9236	-4.53186
0.9237	-9.65881
0.9238	-10.1624
0.9239	-10.9406
0.924	-11.3068
0.9241	-12.0697
0.9242	-10.2997
0.9243	-6.08826
0.9244	-5.90515
0.9245	-5.40161
0.9246	-6.60706
0.9247	-6.13403
0.9248	-4.13513
0.9249	-5.35583
0.925	-5.40161
0.9251	-4.68445
0.9252	-4.88281
0.9253	-5.70679
0.9254	-4.68445
0.9255	-5.43213
0.9256	-5.64575
0.9257	-5.85937
0.9258	-5.08118
0.9259	-10.6049
0.926	-10.6812
0.9261	-10.2844
0.9262	-11.9781
0.9263	-11.4746
0.9264	-10.7269
0.9265	-11.2
0.9266	-10.1776
0.9267	-10.1776
0.9268	-11.5204
0.9269	-10.5286
0.927	-11.1847
0.9271	-10.6506
0.9272	-12.0087
0.9273	-9.56726
0.9274	-11.9019
0.9275	-8.92639
0.9276	-11.5051
0.9277	-10.788
0.9278	-10.376
0.9279	-11.322
0.928	-11.3373
0.9281	-10.8032
0.9282	-10.6659
0.9283	-11.6272
0.9284	-11.5204
0.9285	-10.8948
0.9286	-10.9711
0.9287	-10.6049
0.9288	-12.6495
0.9289	-10.437
0.929	-11.3831
0.9291	-11.5509
0.9292	-11.734
0.9293	-10.5286
0.9294	-11.4136
0.9295	-12.8937
0.9296	-10.2997
0.9297	-12.3138
0.9298	-10.7422
0.9299	-11.0474
0.93	-11.0931
0.9301	-12.8326
0.9302	-10.8032
0.9303	-12.0697
0.9304	-11.3831
0.9305	-10.7574
0.9306	-10.7269
0.9307	-10.4675
0.9308	-10.9863
0.9309	-10.4828
0.931	-11.5509
0.9311	-11.5356
0.9312	-12.7258
0.9313	-11.8408
0.9314	-11.4441
0.9315	-11.673
0.9316	-12.2681
0.9317	-10.8185
0.9318	-11.6119
0.9319	-11.0626
0.932	-11.5509
0.9321	-11.1389
0.9322	-11.1542
0.9323	-8.23975
0.9324	-11.0626
0.9325	-11.5204
0.9326	-11.3831
0.9327	-10.7117
0.9328	-11.5814
0.9329	-11.5204
0.933	-11.0016
0.9331	-11.2305
0.9332	-10.8337
0.9333	-10.1776
0.9334	-11.7798
0.9335	-11.3373
0.9336	-11.4593
0.9337	-11.1084
0.9338	-10.7727
0.9339	-11.4441
0.934	-11.5662
0.9341	-11.2305
0.9342	-11.6272
0.9343	-13.2599
0.9344	-11.3373
0.9345	-10.5133
0.9346	-10.0555
0.9347	-8.52966
0.9348	-11.4136
0.9349	-10.8795
0.935	-11.1389
0.9351	-6.16455
0.9352	-5.5542
0.9353	-10.7574
0.9354	-11.6425
0.9355	-10.9406
0.9356	-11.795
0.9357	-10.1166
0.9358	-10.849
0.9359	-10.8948
0.936	-10.9863
0.9361	-9.93347
0.9362	-11.8103
0.9363	-11.6577
0.9364	-11.6119
0.9365	-11.9934
0.9366	-10.7117
0.9367	-10.1318
0.9368	-11.734
0.9369	-11.4899
0.937	-11.1084
0.9371	-10.8185
0.9372	-8.5144
0.9373	-5.2948
0.9374	-4.82178
0.9375	-5.70679
0.9376	-5.90515
0.9377	-6.40869
0.9378	-8.49914
0.9379	-5.92041
0.938	-10.437
0.9381	-10.5896
0.9382	-10.8185
0.9383	-11.0016
0.9384	-11.0474
0.9385	-12.7716
0.9386	-11.5662
0.9387	-13.5956
0.9388	-12.4359
0.9389	-11.4899
0.939	-8.83484
0.9391	-12.0544
0.9392	-11.6272
0.9393	-12.2833
0.9394	-11.1694
0.9395	-11.6577
0.9396	-10.788
0.9397	-11.1847
0.9398	-10.4828
0.9399	-9.52148
0.94	-10.9711
0.9401	-11.5814
0.9402	-10.0708
0.9403	-11.2457
0.9404	-10.025
0.9405	-11.6882
0.9406	-11.261
0.9407	-10.9711
0.9408	-12.0087
0.9409	-11.1847
0.941	-12.4359
0.9411	-11.4288
0.9412	-11.1542
0.9413	-11.0016
0.9414	-10.5743
0.9415	-11.3831
0.9416	-10.6506
0.9417	-11.322
0.9418	-10.9558
0.9419	-11.3525
0.942	-10.2539
0.9421	-11.2457
0.9422	-10.6659
0.9423	-11.734
0.9424	-10.0861
0.9425	-11.1847
0.9426	-11.6425
0.9427	-10.3912
0.9428	-11.3068
0.9429	-10.7727
0.943	-10.849
0.9431	-11.1847
0.9432	-11.3678
0.9433	-10.5133
0.9434	-11.5967
0.9435	-10.5896
0.9436	-11.2915
0.9437	-11.4593
0.9438	-10.8185
0.9439	-11.5356
0.944	-10.6659
0.9441	-11.1084
0.9442	-10.4523
0.9443	-11.5967
0.9444	-11.3678
0.9445	-11.2915
0.9446	-10.6354
0.9447	-10.8032
0.9448	-9.58252
0.9449	-11.1237
0.945	-10.7269
0.9451	-12.4207
0.9452	-10.2539
0.9453	-10.6354
0.9454	-10.5286
0.9455	-9.94873
0.9456	-10.6506
0.9457	-11.3678
0.9458	-9.53674
0.9459	-11.3831
0.946	-11.1389
0.9461	-10.8337
0.9462	-11.2152
0.9463	-11.1542
0.9464	-10.8337
0.9465	-10.6964
0.9466	-11.5204
0.9467	-10.1929
0.9468	-11.4288
0.9469	-12.2833
0.947	-10.5743
0.9471	-10.6964
0.9472	-10.1013
0.9473	-10.376
0.9474	-8.48389
0.9475	-11.4441
0.9476	-11.6119
0.9477	-11.0474
0.9478	-11.7035
0.9479	-10.9711
0.948	-11.7493
0.9481	-10.2081
0.9482	-11.0016
0.9483	-10.1929
0.9484	-11.8713
0.9485	-11.0168
0.9486	-10.91
0.9487	-12.3291
0.9488	-12.1307
0.9489	-12.0697
0.949	-11.6577
0.9491	-11.4593
0.9492	-11.734
0.9493	-11.2457
0.9494	-11.3373
0.9495	-11.4593
0.9496	-11.2
0.9497	-10.8185
0.9498	-10.8032
0.9499	-12.4664
0.95	-11.734
0.9501	-7.24792
0.9502	-7.5531
0.9503	-10.849
0.9504	-10.2386
0.9505	-10.9863
0.9506	-11.0168
0.9507	-9.99451
0.9508	-11.9629
0.9509	-10.7117
0.951	-11.9476
0.9511	-10.8795
0.9512	-10.5133
0.9513	-11.5051
0.9514	-11.9019
0.9515	-10.6201
0.9516	-5.32532
0.9517	-10.788
0.9518	-10.8795
0.9519	-10.8185
0.952	-10.6354
0.9521	-10.6812
0.9522	-12.1613
0.9523	-9.96399
0.9524	-11.322
0.9525	-10.6506
0.9526	-4.40979
0.9527	-10.9253
0.9528	-11.1694
0.9529	-11.2152
0.953	-11.7035
0.9531	-11.9171
0.9532	-10.8337
0.9533	-11.9324
0.9534	-11.2152
0.9535	-10.0555
0.9536	-11.7035
0.9537	-11.8561
0.9538	-11.261
0.9539	-11.5204
0.954	-10.5743
0.9541	-9.46045
0.9542	-11.4746
0.9543	-11.3373
0.9544	-11.7187
0.9545	-11.0626
0.9546	-11.1389
0.9547	-11.0626
0.9548	-11.5051
0.9549	-10.91
0.955	-12.2833
0.9551	-11.2
0.9552	-10.1624
0.9553	-10.8032
0.9554	-10.5743
0.9555	-11.9324
0.9556	-11.2762
0.9557	-12.619
0.9558	-10.8185
0.9559	-12.7716
0.956	-11.2915
0.9561	-11.734
0.9562	-10.1929
0.9563	-10.4523
0.9564	-10.7574
0.9565	-10.9711
0.9566	-10.3302
0.9567	-11.1542
0.9568	-11.1847
0.9569	-12.146
0.957	-10.788
0.9571	-10.8032
0.9572	-11.8561
0.9573	-14.0228
0.9574	-10.9711
0.9575	-11.7035
0.9576	-10.5896
0.9577	-11.4441
0.9578	-11.7493
0.9579	-11.8866
0.958	-10.9863
0.9581	-11.4136
0.9582	-11.2762
0.9583	-11.7645
0.9584	-11.4593
0.9585	-11.4288
0.9586	-11.3068
0.9587	-11.261
0.9588	-10.788
0.9589	-11.1389
0.959	-10.849
0.9591	-11.0626
0.9592	-11.9629
0.9593	-11.7187
0.9594	-10.9406
0.9595	-11.4441
0.9596	-11.0168
0.9597	-10.91
0.9598	-11.1847
0.9599	-12.085
0.96	-12.3901
0.9601	-11.5051
0.9602	-10.1776
0.9603	-9.35364
0.9604	-11.4288
0.9605	-11.2762
0.9606	-10.5438
0.9607	-11.734
0.9608	-9.90295
0.9609	-11.3373
0.961	-10.6964
0.9611	-11.8408
0.9612	-11.0016
0.9613	-11.2305
0.9614	-11.5051
0.9615	-11.6882
0.9616	-10.849
0.9617	-11.1237
0.9618	-10.5896
0.9619	-11.734
0.962	-11.4136
0.9621	-11.3983
0.9622	-10.7269
0.9623	-11.8103
0.9624	-10.5591
0.9625	-11.5051
0.9626	-11.9476
0.9627	-12.3749
0.9628	-10.1318
0.9629	-11.5204
0.963	-11.8866
0.9631	-9.88769
0.9632	-11.2762
0.9633	-11.0931
0.9634	-11.1542
0.9635	-11.6272
0.9636	-12.085
0.9637	-11.1237
0.9638	-12.2986
0.9639	-10.2844
0.964	-11.0474
0.9641	-11.3831
0.9642	-9.82666
0.9643	-10.849
0.9644	-10.9711
0.9645	-11.3525
0.9646	-10.2997
0.9647	-10.1624
0.9648	-10.437
0.9649	-10.7269
0.965	-10.8185
0.9651	-9.90295
0.9652	-12.085
0.9653	-10.437
0.9654	-10.849
0.9655	-10.8643
0.9656	-11.0626
0.9657	-10.7422
0.9658	-11.2762
0.9659	-12.6495
0.966	-10.7422
0.9661	-11.0321
0.9662	-11.5051
0.9663	-11.1084
0.9664	-10.2081
0.9665	-8.43811
0.9666	-10.91
0.9667	-11.7645
0.9668	-11.0931
0.9669	-10.788
0.967	-11.2305
0.9671	-11.4136
0.9672	-10.788
0.9673	-11.3525
0.9674	-12.0697
0.9675	-11.2
0.9676	-11.2915
0.9677	-10.5133
0.9678	-11.6882
0.9679	-10.8795
0.968	-10.4675
0.9681	-8.7738
0.9682	-11.8408
0.9683	-11.1084
0.9684	-11.2457
0.9685	-11.4136
0.9686	-11.2457
0.9687	-11.8408
0.9688	-12.085
0.9689	-11.6119
0.969	-10.4828
0.9691	-12.0697
0.9692	-11.1847
0.9693	-10.9711
0.9694	-11.5204
0.9695	-12.619
0.9696	-10.9253
0.9697	-8.54492
0.9698	-11.4441
0.9699	-11.3068
0.97	-10.91
0.9701	-12.0239
0.9702	-11.2457
0.9703	-10.2997
0.9704	-11.7187
0.9705	-11.7645
0.9706	-11.3678
0.9707	-11.7798
0.9708	-10.3607
0.9709	-10.7117
0.971	-11.5509
0.9711	-11.7645
0.9712	-11.2915
0.9713	-11.1694
0.9714	-11.3831
0.9715	-11.0321
0.9716	-12.0697
0.9717	-12.1002
0.9718	-10.7422
0.9719	-12.1307
0.972	-11.0016
0.9721	-10.7574
0.9722	-10.9406
0.9723	-10.7574
0.9724	-10.3912
0.9725	-11.4746
0.9726	-12.3444
0.9727	-11.2915
0.9728	-10.6506
0.9729	-10.8795
0.973	-12.6495
0.9731	-11.9019
0.9732	-11.2305
0.9733	-11.3068
0.9734	-11.2762
0.9735	-10.2844
0.9736	-10.9863
0.9737	-9.85718
0.9738	-6.83594
0.9739	-10.7574
0.974	-10.9406
0.9741	-11.7798
0.9742	-11.1847
0.9743	-10.8948
0.9744	-12.1155
0.9745	-10.7422
0.9746	-11.4899
0.9747	-10.6812
0.9748	-10.1013
0.9749	-11.4288
0.975	-10.7574
0.9751	-11.3983
0.9752	-11.3983
0.9753	-11.2915
0.9754	-10.6812
0.9755	-11.5356
0.9756	-11.3831
0.9757	-10.8948
0.9758	-10.5438
0.9759	-10.8032
0.976	-10.4218
0.9761	-11.0931
0.9762	-11.2762
0.9763	-10.5286
0.9764	-11.6272
0.9765	-11.8561
0.9766	-10.7574
0.9767	-11.0168
0.9768	-11.0474
0.9769	-10.7574
0.977	-9.71985
0.9771	-7.18689
0.9772	-5.82886
0.9773	-6.28662
0.9774	-7.14111
0.9775	-6.24084
0.9776	-6.94275
0.9777	-5.88989
0.9778	-5.59998
0.9779	-6.31714
0.978	-7.41577
0.9781	-6.68335
0.9782	-7.72095
0.9783	-8.23975
0.9784	-7.32422
0.9785	-5.98144
0.9786	-6.66809
0.9787	-7.78198
0.9788	-6.27136
0.9789	-6.17981
0.979	-6.88171
0.9791	-6.98852
0.9792	-6.50024
0.9793	-7.73621
0.9794	-6.74438
0.9795	-7.33948
0.9796	-6.10352
0.9797	-7.06482
0.9798	-6.62231
0.9799	-6.17981
0.98	-7.75146
0.9801	-7.49206
0.9802	-7.12585
0.9803	-7.69043
0.9804	-6.48498
0.9805	-7.44629
0.9806	-7.2937
0.9807	-5.64575
0.9808	-7.17163
0.9809	-7.98035
0.981	-6.42395
0.9811	-6.88171
0.9812	-7.14111
0.9813	-7.06482
0.9814	-7.26318
0.9815	-6.74438
0.9816	-6.88171
0.9817	-6.56128
0.9818	-7.65991
0.9819	-7.64465
0.982	-7.0343
0.9821	-6.80542
0.9822	-6.5918
0.9823	-6.28662
0.9824	-7.44629
0.9825	-5.41687
0.9826	-6.75964
0.9827	-7.85828
0.9828	-6.48498
0.9829	-6.08826
0.983	-7.52258
0.9831	-6.62231
0.9832	-5.53894
0.9833	-6.36291
0.9834	-6.63757
0.9835	-7.06482
0.9836	-7.72095
0.9837	-7.08008
0.9838	-6.56128
0.9839	-7.56836
0.984	-6.42395
0.9841	-5.82886
0.9842	-8.19397
0.9843	-7.21741
0.9844	-10.9863
0.9845	-10.2234
0.9846	-10.7117
0.9847	-9.42993
0.9848	-12.0087
0.9849	-11.261
0.985	-11.322
0.9851	-11.2915
0.9852	-11.0016
0.9853	-10.6659
0.9854	-10.5438
0.9855	-11.3678
0.9856	-12.1613
0.9857	-10.788
0.9858	-10.7422
0.9859	-9.06372
0.986	-10.7269
0.9861	-11.7035
0.9862	-11.2915
0.9863	-11.2305
0.9864	-11.9324
0.9865	-9.70459
0.9866	-11.0626
0.9867	-11.0168
0.9868	-11.4136
0.9869	-10.7727
0.987	-10.2234
0.9871	-10.0861
0.9872	-11.2762
0.9873	-11.1389
0.9874	-10.5743
0.9875	-11.322
0.9876	-12.4054
0.9877	-10.91
0.9878	-9.3689
0.9879	-10.8032
0.988	-11.4288
0.9881	-10.1776
0.9882	-10.7269
0.9883	-10.5133
0.9884	-11.795
0.9885	-11.6882
0.9886	-11.7187
0.9887	-9.91821
0.9888	-11.1389
0.9889	-10.4065
0.989	-10.6964
0.9891	-10.4523
0.9892	-6.89697
0.9893	-6.54602
0.9894	-5.59998
0.9895	-8.68225
0.9896	-10.8948
0.9897	-10.7422
0.9898	-11.5967
0.9899	-11.9934
0.99	-11.5509
0.9901	-10.6201
0.9902	-11.2
0.9903	-11.2305
0.9904	-12.0087
0.9905	-10.2692
0.9906	-11.1237
0.9907	-10.8185
0.9908	-11.3678
0.9909	-11.0321
0.991	-10.849
0.9911	-11.1084
0.9912	-11.5051
0.9913	-10.8185
0.9914	-10.5591
0.9915	-12.4054
0.9916	-10.7117
0.9917	-9.82666
0.9918	-10.6506
0.9919	-11.9019
0.992	-10.9406
0.9921	-10.4218
0.9922	-11.6882
0.9923	-10.3607
0.9924	-11.6425
0.9925	-8.92639
0.9926	-10.2234
0.9927	-10.9863
0.9928	-11.5967
0.9929	-10.7117
0.993	-10.5133
0.9931	-11.9476
0.9932	-11.0626
0.9933	-10.0555
0.9934	-11.2762
0.9935	-10.9863
0.9936	-11.0168
0.9937	-9.85718
0.9938	-11.7645
0.9939	-9.70459
0.994	-10.2997
0.9941	-12.1155
0.9942	-10.2081
0.9943	-10.1929
0.9944	-11.0626
0.9945	-10.1624
0.9946	-10.4218
0.9947	-11.0321
0.9948	-9.97925
0.9949	-10.5438
0.995	-11.322
0.9951	-10.8337
0.9952	-11.0321
0.9953	-11.1389
0.9954	-11.3373
0.9955	-10.9253
0.9956	-10.2234
0.9957	-11.9781
0.9958	-10.2081
0.9959	-10.6354
0.996	-10.6659
0.9961	-11.734
0.9962	-10.5286
0.9963	-10.2692
0.9964	-11.8256
0.9965	-10.849
0.9966	-10.5286
0.9967	-11.0321
0.9968	-10.2539
0.9969	-11.9934
0.997	-10.7422
0.9971	-11.0931
0.9972	-10.1318
0.9973	-10.9253
0.9974	-11.322
0.9975	-10.9253
0.9976	-11.3068
0.9977	-10.0403
0.9978	-11.3373
0.9979	-10.8337
0.998	-11.2762
0.9981	-11.8866
0.9982	-9.93347
0.9983	-9.59778
0.9984	-11.7035
0.9985	-7.91931
0.9986	-9.70459
0.9987	-11.7493
0.9988	-11.9171
0.9989	-11.9934
0.999	-11.1542
0.9991	-11.261
0.9992	-12.1002
0.9993	-11.5509
0.9994	-10.9406
0.9995	-11.5967
0.9996	-11.2305
0.9997	-11.0168
0.9998	-12.5275
0.9999	-10.2844
